Sample ID:	C:\MCC\MCC Cal\Test\Black_PMMA_MCC_30K_min_220325_R1.txt
Sample Weight (mg):	4.35
Heating Rate (C/s):	0.5
Combustor Temp (C):	900
N2 Flow Rate (cc/min):	80
O2 Flow Rate (cc/min):	20
Calibration File:	C:\MCC\MCC Cal\Coeff1 JN10440_30_210304.txt.txt
T Correction Coefficients:	0	1.024463	0
Time Shift (s):	14
*
Time (s)	Temperature (C)	N2 flow rate (cc/min)	O2 flow rate (cc/min)	Flow Rate (cc/min)	Oxygen (%)	HRR (W/g)	Heating rate (C/s)
0.000	109.421	79.998	19.993	103.667	19.963	-0.091	0.022
0.500	109.395	80.000	19.995	103.667	19.966	-0.289	0.011
1.000	109.390	80.002	19.995	103.666	19.967	-0.370	-0.014
1.500	109.394	80.001	19.996	103.660	19.967	-0.407	-0.016
2.000	109.409	80.003	19.995	103.655	19.963	-0.044	0.009
2.500	109.396	80.002	19.995	103.655	19.965	-0.228	0.010
3.000	109.404	80.002	19.996	103.654	19.966	-0.278	-0.002
3.500	109.365	80.001	19.994	103.655	19.966	-0.318	-0.018
4.000	109.404	80.002	19.995	103.662	19.967	-0.345	-0.015
4.500	109.387	80.002	19.996	103.668	19.967	-0.337	0.011
5.000	109.402	80.002	19.995	103.668	19.964	-0.148	0.010
5.500	109.374	80.002	19.995	103.669	19.967	-0.405	-0.008
6.000	109.414	80.003	19.995	103.670	19.966	-0.297	-0.001
6.500	109.398	80.003	19.995	103.669	19.962	-0.023	0.018
7.000	109.386	80.003	19.995	103.671	19.965	-0.218	-0.002
7.500	109.421	80.003	19.993	103.672	19.963	-0.050	-0.002
8.000	109.406	80.002	19.994	103.676	19.964	-0.183	0.022
8.500	109.395	80.003	19.995	103.678	19.968	-0.412	-0.004
9.001	109.441	80.004	19.994	103.681	19.962	-0.027	0.004
9.501	109.389	80.003	19.994	103.686	19.964	-0.141	0.015
10.001	109.443	80.004	19.994	103.691	19.962	-0.015	-0.001
10.500	109.421	80.003	19.993	103.694	19.958	0.326	0.017
11.000	109.463	80.003	19.994	103.699	19.954	0.590	0.026
11.500	109.439	80.004	19.995	103.703	19.957	0.343	0.019
12.000	109.470	80.004	19.995	103.705	19.955	0.505	0.013
12.500	109.480	80.004	19.995	103.710	19.953	0.675	0.025
13.000	109.455	80.005	19.994	103.715	19.952	0.767	0.013
13.500	109.486	80.003	19.994	103.719	19.953	0.666	-0.005
14.000	109.471	80.002	19.995	103.726	19.947	1.115	0.010
14.500	109.484	80.004	19.994	103.733	19.952	0.743	0.006
15.000	109.503	80.002	19.994	103.744	19.949	0.951	0.015
15.500	109.538	80.003	19.994	103.762	19.952	0.716	0.044
16.000	109.579	80.004	19.994	103.781	19.950	0.922	0.065
16.500	109.569	80.003	19.994	103.797	19.948	1.055	0.053
17.000	109.543	80.003	19.995	103.813	19.948	1.017	-0.003
17.500	109.622	80.002	19.994	103.819	19.947	1.094	0.009
18.000	109.638	80.001	19.993	103.815	19.947	1.138	0.074
18.500	109.699	80.001	19.995	103.814	19.942	1.477	0.086
19.000	109.686	80.002	19.996	103.818	19.944	1.344	0.063
19.500	109.727	80.002	19.996	103.818	19.940	1.656	0.038
20.000	109.781	80.000	19.994	103.818	19.939	1.687	0.061
20.500	109.769	80.001	19.995	103.815	19.939	1.693	0.069
21.000	109.835	80.001	19.996	103.791	19.937	1.853	0.048
21.500	109.876	80.002	19.995	103.765	19.941	1.548	0.080
22.000	109.908	80.002	19.995	103.752	19.938	1.783	0.090
22.500	109.967	80.002	19.995	103.746	19.938	1.768	0.083
23.000	110.002	80.001	19.994	103.754	19.934	2.080	0.092
23.500	110.052	80.000	19.994	103.780	19.935	2.047	0.089
24.000	110.071	80.003	19.996	103.810	19.936	1.907	0.077
24.500	110.104	80.002	19.995	103.870	19.936	1.951	0.061
25.000	110.154	80.003	19.995	103.904	19.939	1.729	0.067
25.500	110.212	80.002	19.995	103.915	19.938	1.810	0.095
26.000	110.278	80.002	19.995	103.922	19.934	2.095	0.116
26.500	110.277	80.002	19.995	103.921	19.935	1.995	0.095
27.000	110.343	80.002	19.995	103.879	19.939	1.748	0.065
27.500	110.428	80.003	19.995	103.858	19.937	1.831	0.108
28.000	110.450	80.002	19.995	103.854	19.933	2.168	0.129
28.500	110.524	80.003	19.995	103.854	19.931	2.324	0.102
29.000	110.606	80.002	19.995	103.858	19.935	2.008	0.126
29.500	110.652	80.002	19.995	103.865	19.935	1.983	0.142
30.000	110.731	80.002	19.995	103.871	19.931	2.345	0.126
30.500	110.807	80.003	19.995	103.877	19.932	2.264	0.140
31.000	110.850	80.003	19.995	103.878	19.933	2.191	0.137
31.500	110.946	80.004	19.995	103.875	19.933	2.164	0.129
32.001	111.017	80.003	19.995	103.869	19.932	2.222	0.153
32.501	111.104	80.003	19.994	103.863	19.930	2.353	0.163
33.001	111.160	80.004	19.995	103.857	19.929	2.439	0.150
33.500	111.256	80.005	19.994	103.854	19.932	2.258	0.148
34.000	111.326	80.003	19.994	103.854	19.930	2.360	0.159
34.500	111.388	80.003	19.993	103.855	19.931	2.341	0.149
35.000	111.497	80.004	19.994	103.856	19.929	2.457	0.151
35.500	111.583	80.005	19.994	103.858	19.931	2.333	0.183
36.000	111.661	80.003	19.995	103.868	19.929	2.451	0.179
36.500	111.769	80.002	19.993	103.877	19.928	2.518	0.175
37.000	111.816	80.004	19.993	103.884	19.927	2.611	0.171
37.500	111.913	80.002	19.993	103.885	19.929	2.495	0.149
38.000	112.055	80.003	19.993	103.883	19.931	2.343	0.191
38.500	112.133	80.003	19.994	103.876	19.930	2.380	0.230
39.000	112.219	80.001	19.995	103.872	19.927	2.593	0.192
39.500	112.305	80.003	19.995	103.872	19.926	2.657	0.168
40.000	112.398	80.003	19.995	103.878	19.926	2.718	0.175
40.500	112.530	80.002	19.994	103.884	19.924	2.815	0.202
41.000	112.629	80.003	19.994	103.890	19.924	2.828	0.228
41.500	112.720	80.003	19.995	103.895	19.923	2.891	0.210
42.000	112.804	80.001	19.993	103.896	19.925	2.737	0.182
42.500	112.937	80.001	19.994	103.895	19.927	2.604	0.196
43.000	113.075	80.001	19.994	103.896	19.926	2.689	0.244
43.500	113.197	80.002	19.994	103.897	19.924	2.814	0.265
44.000	113.290	80.001	19.994	103.897	19.929	2.462	0.237
44.500	113.428	80.001	19.995	103.897	19.925	2.776	0.223
45.000	113.539	80.001	19.995	103.902	19.919	3.241	0.240
45.500	113.676	80.000	19.994	103.903	19.922	2.981	0.248
46.000	113.806	80.001	19.994	103.897	19.925	2.743	0.257
46.501	113.913	80.001	19.993	103.897	19.919	3.178	0.252
47.001	114.023	80.001	19.994	103.898	19.924	2.865	0.227
47.500	114.143	80.000	19.993	103.894	19.925	2.784	0.223
48.000	114.226	80.001	19.994	103.892	19.920	3.118	0.216
48.500	114.388	80.001	19.994	103.898	19.924	2.862	0.224
49.000	114.547	79.999	19.995	103.899	19.923	2.918	0.283
49.500	114.648	80.002	19.994	103.900	19.921	3.059	0.290
50.000	114.810	80.001	19.994	103.900	19.926	2.658	0.262
50.500	114.878	80.002	19.994	103.901	19.925	2.776	0.247
51.000	115.029	80.000	19.994	103.902	19.923	2.914	0.224
51.500	115.128	80.000	19.994	103.902	19.920	3.126	0.234
52.000	115.283	80.002	19.994	103.908	19.922	2.965	0.252
52.500	115.452	80.000	19.994	103.909	19.925	2.778	0.289
53.000	115.561	80.001	19.994	103.915	19.921	3.032	0.301
53.501	115.733	80.002	19.994	103.923	19.924	2.797	0.279
54.001	115.877	80.000	19.995	103.927	19.919	3.188	0.298
54.500	116.006	80.001	19.995	103.929	19.920	3.107	0.295
55.000	116.117	80.000	19.994	103.934	19.919	3.190	0.256
55.500	116.327	80.001	19.995	103.905	19.926	2.666	0.281
56.000	116.397	80.001	19.995	103.874	19.924	2.820	0.301
56.500	116.592	80.000	19.994	103.863	19.922	3.007	0.272
57.000	116.778	80.001	19.994	103.856	19.925	2.774	0.323
57.500	116.921	80.001	19.993	103.854	19.923	2.922	0.355
58.000	117.048	80.002	19.994	103.890	19.922	2.957	0.300
58.500	117.194	80.001	19.994	103.962	19.924	2.858	0.272
59.000	117.318	80.001	19.993	103.992	19.923	2.906	0.271
59.500	117.524	80.002	19.994	104.002	19.925	2.747	0.300
60.000	117.649	80.001	19.994	104.002	19.920	3.114	0.330
60.500	117.845	80.000	19.993	103.992	19.923	2.872	0.325
61.000	117.987	80.000	19.994	103.944	19.921	3.055	0.329
61.500	118.172	80.001	19.994	103.921	19.926	2.693	0.333
62.000	118.308	80.001	19.993	103.913	19.920	3.147	0.324
62.500	118.481	80.001	19.994	103.907	19.925	2.752	0.315
63.000	118.680	80.001	19.993	103.907	19.922	2.995	0.340
63.500	118.816	80.001	19.994	103.906	19.922	2.974	0.354
64.000	118.992	80.002	19.993	103.905	19.923	2.907	0.324
64.500	119.147	80.002	19.994	103.904	19.922	3.003	0.321
65.000	119.309	79.999	19.994	103.904	19.921	3.082	0.324
65.501	119.495	80.002	19.994	103.903	19.925	2.749	0.333
66.001	119.680	80.002	19.994	103.904	19.920	3.155	0.359
66.500	119.866	80.002	19.994	103.905	19.920	3.116	0.371
67.000	120.022	80.001	19.993	103.907	19.922	2.991	0.357
67.500	120.198	80.001	19.995	103.909	19.921	3.089	0.337
68.000	120.386	80.002	19.993	103.912	19.924	2.862	0.348
68.500	120.554	80.002	19.994	103.914	19.921	3.058	0.360
69.000	120.722	80.001	19.993	103.916	19.923	2.931	0.346
69.500	120.894	80.001	19.993	103.921	19.919	3.243	0.338
70.000	121.092	80.001	19.994	103.926	19.924	2.854	0.355
70.500	121.248	80.002	19.993	103.927	19.922	2.985	0.362
71.000	121.465	80.002	19.995	103.927	19.924	2.802	0.363
71.500	121.640	80.002	19.994	103.926	19.920	3.123	0.382
72.000	121.818	80.002	19.994	103.923	19.919	3.237	0.373
72.500	121.998	80.001	19.994	103.922	19.918	3.312	0.356
73.000	122.189	80.001	19.994	103.920	19.918	3.308	0.365
73.500	122.398	80.001	19.994	103.924	19.919	3.243	0.385
74.000	122.582	80.000	19.993	103.928	19.915	3.542	0.397
74.501	122.783	80.001	19.994	103.924	19.916	3.455	0.389
75.001	122.931	80.001	19.994	103.920	19.921	3.032	0.367
75.500	123.158	80.000	19.994	103.921	19.917	3.367	0.362
76.001	123.348	80.001	19.994	103.919	19.915	3.496	0.396
76.501	123.543	80.001	19.994	103.914	19.919	3.239	0.401
77.001	123.705	80.002	19.996	103.914	19.925	2.775	0.371
77.501	123.911	80.000	19.993	103.916	19.924	2.827	0.363
78.001	124.137	80.000	19.993	103.920	19.918	3.289	0.400
78.501	124.313	80.001	19.995	103.921	19.918	3.305	0.417
79.000	124.498	80.001	19.994	103.928	19.925	2.752	0.381
79.500	124.676	80.003	19.994	103.937	19.920	3.101	0.362
80.000	124.886	80.003	19.995	103.945	19.923	2.933	0.376
80.500	125.089	80.001	19.993	103.948	19.920	3.122	0.400
81.000	125.289	80.001	19.995	103.950	19.921	3.076	0.408
81.500	125.495	80.001	19.995	103.951	19.919	3.228	0.405
82.000	125.701	80.002	19.994	103.948	19.920	3.118	0.409
82.500	125.931	80.001	19.994	103.943	19.918	3.287	0.424
83.000	126.140	80.002	19.995	103.940	19.916	3.399	0.438
83.500	126.322	80.002	19.994	103.937	19.918	3.270	0.415
84.001	126.526	80.001	19.994	103.933	19.923	2.931	0.388
84.501	126.755	80.002	19.995	103.927	19.917	3.353	0.410
85.000	126.936	80.002	19.994	103.920	19.917	3.322	0.422
85.500	127.121	80.002	19.995	103.912	19.916	3.437	0.388
86.001	127.331	80.002	19.995	103.910	19.918	3.297	0.380
86.501	127.550	80.001	19.995	103.913	19.917	3.368	0.412
87.000	127.730	80.002	19.994	103.917	19.918	3.276	0.414
87.500	127.958	80.003	19.995	103.925	19.918	3.295	0.403
88.000	128.157	80.001	19.994	103.933	19.917	3.376	0.417
88.500	128.386	80.004	19.994	103.935	19.918	3.259	0.428
89.000	128.601	80.002	19.994	103.933	19.918	3.289	0.436
89.500	128.834	80.004	19.995	103.934	19.920	3.151	0.446
90.000	129.040	80.004	19.994	103.932	19.920	3.151	0.444
90.500	129.237	80.002	19.994	103.932	19.916	3.434	0.422
91.000	129.447	80.002	19.995	103.932	19.918	3.251	0.405
91.501	129.677	80.003	19.995	103.933	19.919	3.218	0.423
92.001	129.895	80.002	19.994	103.932	19.916	3.405	0.444
92.500	130.145	80.002	19.994	103.933	19.912	3.713	0.458
93.000	130.343	80.004	19.994	103.933	19.917	3.364	0.458
93.500	130.516	80.001	19.995	103.934	19.920	3.129	0.410
94.000	130.775	80.002	19.996	103.932	19.915	3.535	0.401
94.500	130.975	80.003	19.995	103.927	19.916	3.408	0.445
95.000	131.185	80.001	19.994	103.927	19.919	3.235	0.434
95.500	131.402	80.003	19.994	103.929	19.919	3.220	0.419
96.000	131.607	80.002	19.993	103.930	19.922	2.976	0.425
96.500	131.858	80.003	19.993	103.934	19.923	2.932	0.439
97.000	132.065	80.002	19.994	103.939	19.921	3.022	0.457
97.500	132.301	80.002	19.994	103.939	19.924	2.837	0.450
98.000	132.497	80.003	19.995	103.937	19.919	3.231	0.437
98.501	132.727	80.003	19.995	103.935	19.924	2.871	0.429
99.001	132.952	80.002	19.995	103.929	19.920	3.097	0.440
99.500	133.184	80.002	19.994	103.928	19.920	3.120	0.456
100.000	133.421	80.001	19.993	103.927	19.919	3.177	0.463
100.500	133.641	80.002	19.993	103.928	19.923	2.875	0.463
101.001	133.859	80.002	19.994	103.928	19.917	3.326	0.448
101.501	134.118	80.002	19.994	103.931	19.919	3.241	0.458
102.000	134.290	80.001	19.994	103.932	19.915	3.474	0.454
102.500	134.533	80.001	19.994	103.930	19.920	3.113	0.422
103.000	134.754	80.003	19.994	103.927	19.917	3.324	0.439
103.500	134.957	80.002	19.994	103.930	19.919	3.241	0.444
104.000	135.212	80.004	19.994	103.941	19.917	3.366	0.441
104.500	135.427	80.001	19.995	103.948	19.920	3.168	0.464
105.000	135.647	80.002	19.994	103.950	19.919	3.232	0.452
105.501	135.883	80.001	19.994	103.947	19.918	3.257	0.445
106.001	136.104	80.001	19.994	103.938	19.919	3.193	0.456
106.500	136.334	80.002	19.994	103.922	19.925	2.787	0.454
107.001	136.557	80.003	19.993	103.915	19.923	2.895	0.452
107.501	136.841	80.002	19.994	103.915	19.918	3.316	0.480
108.000	137.054	80.002	19.994	103.922	19.924	2.837	0.502
108.500	137.318	80.002	19.994	103.931	19.919	3.181	0.487
109.001	137.514	80.003	19.996	103.939	19.917	3.364	0.468
109.501	137.757	80.002	19.995	103.939	19.917	3.378	0.449
110.000	138.018	80.003	19.994	103.939	19.915	3.524	0.472
110.500	138.251	80.002	19.995	103.939	19.917	3.359	0.499
111.000	138.494	80.003	19.995	103.937	19.918	3.274	0.485
111.500	138.739	80.002	19.995	103.932	19.917	3.341	0.482
112.000	138.973	80.003	19.994	103.926	19.922	2.985	0.483
112.500	139.222	80.002	19.994	103.921	19.915	3.478	0.481
113.000	139.451	80.002	19.994	103.920	19.916	3.408	0.481
113.500	139.670	80.002	19.994	103.915	19.919	3.210	0.463
114.000	139.894	80.002	19.995	103.918	19.913	3.678	0.445
114.501	140.159	80.002	19.995	103.925	19.910	3.845	0.466
115.001	140.373	80.002	19.994	103.930	19.913	3.632	0.484
115.501	140.584	80.002	19.994	103.926	19.913	3.685	0.452
116.000	140.820	80.001	19.994	103.923	19.912	3.717	0.436
116.500	141.085	80.002	19.995	103.923	19.912	3.721	0.474
117.000	141.311	80.000	19.994	103.923	19.909	3.960	0.496
117.500	141.572	80.002	19.995	103.922	19.912	3.695	0.489
118.000	141.810	80.000	19.994	103.926	19.911	3.815	0.493
118.500	142.040	80.001	19.994	103.934	19.916	3.435	0.483
119.000	142.237	80.002	19.995	103.935	19.909	3.984	0.448
119.500	142.513	80.000	19.995	103.933	19.910	3.912	0.450
120.000	142.727	79.999	19.995	103.935	19.906	4.186	0.482
120.500	143.038	79.999	19.996	103.931	19.910	3.916	0.508
121.000	143.269	80.000	19.995	103.927	19.913	3.641	0.534
121.500	143.497	80.001	19.995	103.923	19.910	3.911	0.500
122.000	143.764	80.001	19.996	103.925	19.910	3.871	0.476
122.500	143.990	80.000	19.995	103.926	19.905	4.215	0.494
123.001	144.249	80.001	19.995	103.930	19.904	4.338	0.489
123.501	144.486	80.000	19.995	103.933	19.907	4.065	0.491
124.000	144.686	79.999	19.994	103.937	19.902	4.465	0.467
124.500	144.920	79.999	19.994	103.935	19.904	4.361	0.435
125.000	145.246	80.001	19.995	103.923	19.906	4.194	0.497
125.500	145.492	80.000	19.994	103.883	19.902	4.496	0.566
126.000	145.685	80.000	19.994	103.859	19.900	4.587	0.506
126.500	145.922	80.000	19.994	103.849	19.905	4.283	0.435
127.000	146.158	80.000	19.994	103.846	19.903	4.416	0.452
127.500	146.436	80.001	19.994	103.858	19.902	4.502	0.493
128.000	146.652	80.000	19.994	103.899	19.899	4.722	0.504
128.500	146.894	80.001	19.993	103.941	19.902	4.494	0.476
129.000	147.111	80.001	19.994	103.989	19.902	4.485	0.458
129.500	147.390	80.001	19.994	104.000	19.902	4.461	0.478
130.000	147.618	80.000	19.993	104.000	19.903	4.419	0.501
130.500	147.853	80.001	19.994	103.999	19.902	4.458	0.485
131.001	148.111	80.000	19.994	103.980	19.900	4.618	0.478
131.500	148.348	80.001	19.995	103.941	19.903	4.420	0.494
132.000	148.626	80.001	19.994	103.932	19.898	4.784	0.505
132.500	148.854	80.002	19.994	103.927	19.902	4.484	0.510
133.000	149.098	80.002	19.994	103.927	19.898	4.741	0.489
133.500	149.319	80.002	19.994	103.929	19.901	4.535	0.468
134.000	149.570	80.001	19.993	103.931	19.901	4.512	0.468
134.500	149.844	80.001	19.994	103.932	19.897	4.855	0.499
135.000	150.105	80.001	19.994	103.937	19.900	4.610	0.530
135.500	150.331	80.003	19.994	103.937	19.900	4.591	0.511
136.000	150.574	80.002	19.995	103.938	19.898	4.770	0.478
136.500	150.819	80.002	19.994	103.936	19.900	4.651	0.478
137.000	151.072	80.000	19.993	103.929	19.896	4.918	0.493
137.500	151.297	80.002	19.994	103.923	19.899	4.726	0.488
138.000	151.533	80.001	19.992	103.917	19.894	5.070	0.470
138.500	151.777	80.002	19.994	103.916	19.892	5.232	0.471
139.000	152.029	80.001	19.995	103.916	19.894	5.099	0.488
139.500	152.280	80.001	19.994	103.924	19.894	5.041	0.499
140.000	152.530	80.000	19.993	103.929	19.896	4.943	0.502
140.500	152.784	80.001	19.994	103.929	19.894	5.055	0.503
141.000	153.039	80.001	19.994	103.925	19.892	5.199	0.507
141.500	153.230	80.000	19.994	103.918	19.894	5.096	0.478
142.000	153.504	80.001	19.993	103.913	19.898	4.774	0.455
142.500	153.730	80.001	19.994	103.906	19.892	5.221	0.482
143.000	153.989	80.000	19.994	103.906	19.889	5.431	0.493
143.500	154.242	80.000	19.994	103.906	19.891	5.302	0.499
144.000	154.483	80.000	19.994	103.910	19.893	5.136	0.503
144.500	154.747	80.001	19.994	103.914	19.888	5.544	0.500
145.000	155.001	80.000	19.995	103.917	19.888	5.546	0.511
145.500	155.215	80.000	19.995	103.916	19.884	5.833	0.492
146.000	155.474	80.000	19.995	103.917	19.889	5.477	0.471
146.500	155.733	80.001	19.994	103.912	19.884	5.802	0.496
147.000	155.981	80.001	19.994	103.907	19.883	5.854	0.512
147.500	156.226	80.001	19.994	103.911	19.881	6.022	0.500
148.000	156.511	80.001	19.994	103.917	19.884	5.800	0.512
148.500	156.714	80.000	19.994	103.918	19.885	5.729	0.510
149.000	156.959	79.999	19.994	103.921	19.885	5.725	0.469
149.500	157.235	79.999	19.995	103.924	19.883	5.856	0.485
150.000	157.476	80.000	19.994	103.922	19.884	5.779	0.519
150.500	157.726	80.000	19.994	103.916	19.883	5.872	0.504
151.000	157.971	80.000	19.994	103.913	19.885	5.722	0.493
151.500	158.212	80.000	19.994	103.915	19.878	6.232	0.490
152.000	158.471	80.000	19.994	103.912	19.883	5.901	0.493
152.500	158.698	79.999	19.995	103.910	19.877	6.372	0.493
153.000	158.930	80.000	19.994	103.910	19.882	5.941	0.472
153.500	159.200	79.999	19.994	103.912	19.874	6.563	0.480
154.000	159.464	79.998	19.995	103.907	19.881	6.041	0.518
154.500	159.688	80.000	19.994	103.906	19.878	6.251	0.511
155.000	159.953	80.000	19.995	103.908	19.876	6.443	0.489
155.500	160.240	80.001	19.995	103.909	19.874	6.555	0.521
156.000	160.442	80.001	19.995	103.907	19.876	6.430	0.520
156.500	160.718	80.001	19.995	103.912	19.877	6.372	0.483
157.000	160.972	80.001	19.994	103.913	19.873	6.620	0.504
157.500	161.242	80.000	19.994	103.909	19.873	6.601	0.527
158.000	161.433	80.001	19.994	103.908	19.875	6.468	0.493
158.501	161.712	80.000	19.994	103.907	19.872	6.694	0.466
159.000	161.982	80.001	19.995	103.904	19.869	6.907	0.509
159.500	162.177	80.001	19.993	103.904	19.869	6.942	0.507
160.000	162.455	80.002	19.995	103.905	19.869	6.909	0.469
160.500	162.676	80.002	19.994	103.905	19.872	6.730	0.486
161.000	162.943	80.000	19.993	103.904	19.866	7.127	0.494
161.500	163.179	80.001	19.992	103.903	19.869	6.954	0.495
162.000	163.449	80.001	19.994	103.902	19.867	7.117	0.504
162.500	163.693	80.002	19.994	103.902	19.864	7.333	0.510
163.000	163.909	80.002	19.994	103.901	19.864	7.327	0.487
163.500	164.175	80.002	19.994	103.902	19.866	7.173	0.471
164.000	164.419	80.003	19.994	103.902	19.865	7.262	0.496
164.500	164.677	80.003	19.994	103.904	19.863	7.358	0.507
165.000	164.983	80.001	19.994	103.904	19.863	7.343	0.533
165.500	165.161	80.003	19.994	103.905	19.859	7.643	0.524
166.000	165.442	80.003	19.994	103.908	19.864	7.321	0.471
166.500	165.684	80.002	19.993	103.907	19.860	7.624	0.491
167.000	165.899	80.003	19.994	103.906	19.859	7.649	0.490
167.500	166.185	80.003	19.993	103.907	19.857	7.812	0.480
168.000	166.478	80.003	19.994	103.907	19.855	7.982	0.540
168.500	166.731	80.002	19.994	103.904	19.858	7.720	0.562
169.000	167.022	80.002	19.994	103.904	19.856	7.916	0.545
169.500	167.263	80.002	19.994	103.904	19.857	7.832	0.538
170.000	167.458	80.002	19.993	103.903	19.853	8.134	0.484
170.500	167.691	80.001	19.994	103.902	19.849	8.448	0.432
171.000	167.924	80.001	19.993	103.902	19.854	8.074	0.447
171.500	168.190	80.002	19.994	103.901	19.852	8.226	0.483
172.000	168.440	80.002	19.994	103.902	19.854	8.043	0.508
172.500	168.706	80.000	19.994	103.902	19.850	8.340	0.517
