Sample ID:	C:\MCC\MCC Cal\Test\Air_Fryer_MCC_30K_min_220203_R2.txt
Sample Weight (mg):	4.48
Heating Rate (C/s):	0.5
Combustor Temp (C):	900
N2 Flow Rate (cc/min):	80
O2 Flow Rate (cc/min):	20
Calibration File:	C:\MCC\MCC Cal\Coeff1 JN10440_30_210304.txt.txt
T Correction Coefficients:	0	1.024463	0
Time Shift (s):	14
*
Time (s)	Temperature (C)	N2 flow rate (cc/min)	O2 flow rate (cc/min)	Flow Rate (cc/min)	Oxygen (%)	HRR (W/g)	Heating rate (C/s)
0.000	112.556	80.008	19.994	103.831	20.113	0.050	-0.020
0.500	112.576	80.006	19.994	103.830	20.111	0.153	-0.030
1.000	112.613	80.007	19.995	103.827	20.113	0.034	0.025
1.500	112.608	80.007	19.994	103.827	20.110	0.203	0.044
2.000	112.571	80.007	19.996	103.827	20.112	0.092	-0.005
2.500	112.597	80.007	19.994	103.828	20.114	-0.088	-0.026
3.000	112.562	80.008	19.995	103.829	20.112	0.105	-0.010
3.500	112.586	80.007	19.994	103.832	20.113	0.048	-0.010
4.000	112.545	80.008	19.995	103.832	20.116	-0.229	-0.014
4.500	112.565	80.007	19.995	103.831	20.112	0.090	-0.019
5.000	112.555	80.008	19.995	103.831	20.113	0.046	-0.006
5.500	112.571	80.008	19.995	103.831	20.111	0.151	0.008
6.000	112.569	80.008	19.995	103.831	20.111	0.181	0.009
6.500	112.600	80.008	19.995	103.832	20.110	0.207	0.021
7.000	112.558	80.008	19.994	103.834	20.110	0.255	0.009
7.500	112.546	80.008	19.995	103.834	20.109	0.295	-0.032
8.000	112.573	80.008	19.996	103.834	20.110	0.267	-0.019
8.501	112.563	80.008	19.995	103.834	20.111	0.141	0.016
9.001	112.586	80.006	19.994	103.833	20.110	0.199	0.015
9.500	112.580	80.009	19.994	103.833	20.111	0.153	0.015
10.001	112.579	80.008	19.994	103.834	20.111	0.159	0.005
10.501	112.537	80.007	19.994	103.835	20.106	0.530	-0.025
11.001	112.583	80.007	19.994	103.836	20.108	0.349	-0.020
11.501	112.579	80.008	19.995	103.835	20.108	0.375	0.023
12.001	112.543	80.006	19.995	103.836	20.107	0.460	0.001
12.500	112.597	80.006	19.995	103.843	20.105	0.610	-0.011
13.001	112.589	80.007	19.995	103.846	20.103	0.717	0.032
13.501	112.581	80.008	19.995	103.851	20.106	0.488	0.016
14.001	112.563	80.007	19.994	103.859	20.106	0.554	-0.021
14.500	112.550	80.007	19.995	103.867	20.103	0.713	-0.029
15.001	112.569	80.008	19.994	103.869	20.102	0.825	-0.013
15.501	112.580	80.008	19.995	103.874	20.101	0.867	0.018
16.000	112.549	80.007	19.994	103.890	20.099	1.012	0.005
16.500	112.608	80.007	19.994	103.882	20.097	1.211	0.004
17.000	112.602	80.006	19.995	103.869	20.098	1.116	0.041
17.500	112.585	80.008	19.995	103.858	20.097	1.179	0.015
18.000	112.606	80.008	19.995	103.856	20.096	1.231	-0.010
18.500	112.637	80.007	19.995	103.844	20.093	1.445	0.028
19.001	112.638	80.007	19.995	103.860	20.094	1.359	0.042
19.500	112.635	80.007	19.996	103.902	20.095	1.294	0.015
20.000	112.671	80.008	19.995	103.956	20.094	1.421	0.015
20.500	112.676	80.008	19.995	103.984	20.093	1.483	0.037
21.000	112.673	80.008	19.994	103.999	20.093	1.439	0.022
21.500	112.709	80.008	19.995	104.006	20.094	1.365	0.018
22.000	112.707	80.006	19.996	103.990	20.091	1.580	0.033
22.500	112.708	80.008	19.996	103.958	20.090	1.692	0.016
23.001	112.767	80.008	19.996	103.947	20.092	1.519	0.029
23.500	112.792	80.007	19.995	103.944	20.091	1.575	0.072
24.000	112.795	80.007	19.995	103.943	20.089	1.722	0.056
24.500	112.847	80.007	19.995	103.945	20.091	1.583	0.041
25.000	112.867	80.008	19.997	103.945	20.089	1.752	0.064
25.500	112.913	80.007	19.997	103.945	20.092	1.565	0.069
26.000	112.937	80.008	19.996	103.945	20.090	1.661	0.068
26.500	112.958	80.008	19.996	103.945	20.091	1.647	0.058
27.000	112.971	80.008	19.996	103.945	20.090	1.716	0.040
27.500	112.999	80.008	19.996	103.947	20.088	1.844	0.037
28.000	113.032	80.009	19.996	103.950	20.085	2.028	0.051
28.500	113.144	80.008	19.996	103.955	20.088	1.816	0.104
29.000	113.100	80.008	19.995	103.963	20.087	1.928	0.106
29.500	113.191	80.009	19.997	103.973	20.083	2.155	0.057
30.000	113.255	80.007	19.996	103.986	20.082	2.233	0.101
30.500	113.297	80.008	19.996	103.997	20.084	2.141	0.131
31.000	113.320	80.009	19.995	104.005	20.084	2.110	0.086
31.500	113.390	80.008	19.996	104.006	20.081	2.325	0.079
32.000	113.441	80.011	19.995	104.004	20.081	2.347	0.107
32.500	113.501	80.009	19.996	103.995	20.079	2.481	0.116
33.000	113.525	80.009	19.996	103.989	20.083	2.195	0.097
33.500	113.619	80.009	19.994	103.985	20.080	2.375	0.101
34.000	113.674	80.009	19.995	103.985	20.079	2.454	0.134
34.500	113.721	80.009	19.996	103.989	20.079	2.474	0.126
35.000	113.797	80.010	19.994	103.995	20.081	2.363	0.113
35.500	113.838	80.010	19.995	103.997	20.083	2.211	0.120
36.000	113.914	80.010	19.995	104.001	20.076	2.672	0.117
36.500	113.973	80.009	19.995	104.006	20.078	2.580	0.126
37.000	114.079	80.009	19.994	104.010	20.075	2.784	0.150
37.500	114.143	80.010	19.994	104.013	20.078	2.552	0.168
38.000	114.231	80.009	19.994	104.019	20.079	2.499	0.161
38.500	114.286	80.009	19.994	104.021	20.076	2.674	0.147
39.000	114.340	80.009	19.995	104.021	20.073	2.930	0.126
39.500	114.427	80.009	19.993	104.017	20.077	2.599	0.126
40.000	114.536	80.009	19.994	104.014	20.075	2.768	0.169
40.500	114.569	80.008	19.995	104.013	20.074	2.818	0.169
41.000	114.665	80.008	19.995	104.015	20.075	2.794	0.135
41.501	114.737	80.007	19.996	104.024	20.072	3.012	0.148
42.001	114.845	80.009	19.994	104.034	20.073	2.918	0.174
42.500	114.880	80.007	19.995	104.039	20.074	2.860	0.162
43.000	115.003	80.007	19.993	104.045	20.072	2.974	0.151
43.500	115.095	80.007	19.995	104.045	20.072	3.018	0.187
44.000	115.186	80.007	19.996	104.039	20.073	2.914	0.199
44.500	115.265	80.008	19.994	104.034	20.072	2.976	0.176
45.001	115.367	80.007	19.994	104.032	20.073	2.922	0.175
45.501	115.461	80.007	19.994	104.031	20.071	3.030	0.188
46.000	115.525	80.007	19.994	104.032	20.069	3.173	0.177
46.500	115.635	80.008	19.995	104.032	20.071	3.084	0.167
47.000	115.768	80.008	19.995	104.034	20.070	3.106	0.208
47.500	115.806	80.007	19.995	104.037	20.073	2.886	0.207
48.000	115.922	80.006	19.994	104.038	20.071	3.084	0.162
48.501	116.072	80.007	19.993	104.042	20.074	2.809	0.210
49.001	116.171	80.008	19.994	104.048	20.069	3.186	0.258
49.501	116.263	80.007	19.995	104.051	20.070	3.168	0.220
50.000	116.390	80.007	19.994	104.054	20.070	3.156	0.205
50.500	116.491	80.007	19.994	104.059	20.070	3.138	0.224
51.000	116.598	80.008	19.994	104.061	20.067	3.373	0.218
51.500	116.705	80.006	19.993	104.062	20.065	3.501	0.211
52.000	116.837	80.007	19.995	104.064	20.069	3.232	0.227
52.500	116.925	80.007	19.994	104.065	20.067	3.375	0.229
53.000	117.076	80.006	19.995	104.065	20.067	3.315	0.229
53.501	117.174	80.007	19.993	104.066	20.064	3.535	0.244
54.001	117.291	80.007	19.995	104.068	20.068	3.311	0.233
54.500	117.446	80.007	19.995	104.068	20.064	3.543	0.244
55.000	117.564	80.008	19.994	104.068	20.067	3.349	0.272
55.500	117.710	80.007	19.994	104.068	20.063	3.650	0.268
56.000	117.815	80.007	19.994	104.068	20.066	3.409	0.257
56.500	117.963	80.006	19.994	104.066	20.065	3.477	0.252
57.000	118.063	80.007	19.993	104.067	20.063	3.636	0.250
57.501	118.244	80.007	19.994	104.067	20.065	3.467	0.265
58.001	118.367	80.007	19.993	104.069	20.064	3.558	0.293
58.500	118.478	80.008	19.993	104.068	20.066	3.459	0.269
59.000	118.609	80.008	19.994	104.074	20.064	3.533	0.238
59.500	118.758	80.007	19.994	104.075	20.065	3.495	0.261
60.000	118.904	80.007	19.994	104.078	20.065	3.505	0.288
60.501	119.061	80.008	19.995	104.080	20.064	3.543	0.299
61.001	119.196	80.007	19.994	104.086	20.065	3.484	0.298
61.501	119.323	80.009	19.994	104.086	20.066	3.446	0.277
62.000	119.496	80.007	19.994	104.084	20.066	3.400	0.281
62.500	119.611	80.007	19.993	104.082	20.063	3.643	0.294
63.000	119.808	80.007	19.994	104.079	20.063	3.643	0.300
63.501	119.914	80.009	19.994	104.077	20.063	3.645	0.307
64.001	120.071	80.008	19.994	104.076	20.061	3.796	0.283
64.501	120.233	80.008	19.994	104.077	20.059	3.898	0.291
65.001	120.370	80.008	19.993	104.079	20.060	3.862	0.309
65.500	120.498	80.008	19.994	104.082	20.061	3.751	0.282
66.000	120.682	80.009	19.994	104.079	20.062	3.693	0.289
66.500	120.887	80.008	19.993	104.077	20.065	3.463	0.351
67.000	121.021	80.008	19.994	104.079	20.062	3.741	0.364
67.500	121.186	80.007	19.995	104.077	20.060	3.862	0.319
68.001	121.335	80.007	19.993	104.074	20.061	3.769	0.306
68.501	121.509	80.007	19.994	104.073	20.061	3.797	0.318
69.000	121.644	80.008	19.994	104.074	20.062	3.683	0.316
69.500	121.843	80.008	19.994	104.072	20.064	3.561	0.322
70.000	121.975	80.008	19.993	104.076	20.061	3.789	0.332
70.500	122.146	80.007	19.995	104.082	20.066	3.432	0.317
71.000	122.327	80.007	19.995	104.089	20.065	3.473	0.327
71.500	122.511	80.007	19.993	104.095	20.062	3.737	0.358
72.001	122.674	80.008	19.993	104.100	20.059	3.902	0.356
72.501	122.851	80.007	19.994	104.104	20.064	3.577	0.343
73.001	123.010	80.007	19.994	104.102	20.061	3.775	0.338
73.501	123.195	80.007	19.994	104.101	20.064	3.605	0.340
74.001	123.392	80.007	19.994	104.096	20.062	3.727	0.363
74.501	123.579	80.007	19.993	104.091	20.062	3.732	0.383
75.000	123.741	80.007	19.994	104.089	20.058	3.976	0.366
75.500	123.922	80.008	19.994	104.090	20.059	3.966	0.346
76.000	124.093	80.007	19.994	104.090	20.063	3.659	0.348
76.500	124.256	80.007	19.994	104.091	20.061	3.820	0.344
77.001	124.441	80.007	19.994	104.093	20.058	4.028	0.341
77.501	124.597	80.007	19.993	104.092	20.059	3.932	0.344
78.001	124.801	80.007	19.994	104.093	20.057	4.074	0.351
78.501	124.981	80.008	19.994	104.094	20.060	3.851	0.372
79.000	125.188	80.007	19.995	104.097	20.060	3.857	0.385
79.500	125.336	80.007	19.995	104.100	20.058	3.978	0.371
80.000	125.574	80.008	19.994	104.101	20.058	4.030	0.371
80.501	125.745	80.007	19.994	104.101	20.058	3.990	0.397
81.001	125.919	80.008	19.994	104.099	20.057	4.068	0.377
81.500	126.071	80.008	19.995	104.101	20.061	3.761	0.335
82.000	126.291	80.008	19.994	104.098	20.059	3.964	0.349
82.500	126.477	80.009	19.994	104.097	20.057	4.054	0.389
83.001	126.697	80.006	19.994	104.096	20.057	4.090	0.406
83.501	126.875	80.007	19.994	104.096	20.056	4.166	0.402
84.000	127.068	80.007	19.995	104.095	20.060	3.831	0.384
84.500	127.253	80.008	19.994	104.093	20.056	4.124	0.375
85.000	127.447	80.007	19.994	104.088	20.055	4.214	0.379
85.500	127.627	80.009	19.995	104.083	20.056	4.182	0.377
86.000	127.847	80.007	19.994	104.083	20.055	4.196	0.387
86.500	128.005	80.008	19.995	104.082	20.054	4.260	0.389
87.001	128.231	80.008	19.994	104.084	20.056	4.122	0.381
87.501	128.454	80.008	19.996	104.091	20.053	4.383	0.417
88.000	128.614	80.008	19.996	104.098	20.053	4.391	0.416
88.501	128.801	80.008	19.995	104.099	20.058	4.028	0.365
89.001	129.027	80.005	19.994	104.100	20.057	4.110	0.380
89.500	129.208	80.009	19.996	104.102	20.059	3.944	0.410
90.000	129.414	80.008	19.996	104.102	20.057	4.052	0.397
90.500	129.610	80.008	19.996	104.102	20.058	3.982	0.394
91.000	129.781	80.007	19.997	104.102	20.062	3.721	0.384
91.500	129.987	80.007	19.994	104.098	20.059	3.897	0.372
92.001	130.177	80.007	19.995	104.094	20.058	3.974	0.387
92.501	130.428	80.008	19.995	104.093	20.058	3.968	0.419
93.000	130.611	80.009	19.994	104.092	20.060	3.861	0.437
93.500	130.818	80.008	19.996	104.092	20.060	3.835	0.411
94.000	131.058	80.008	19.996	104.097	20.059	3.928	0.418
94.500	131.248	80.009	19.994	104.100	20.062	3.679	0.439
95.000	131.480	80.008	19.995	104.100	20.058	4.038	0.426
95.500	131.665	80.007	19.995	104.100	20.058	3.986	0.420
96.000	131.898	80.009	19.995	104.101	20.061	3.787	0.418
96.500	132.108	80.008	19.994	104.100	20.064	3.593	0.431
97.000	132.278	80.009	19.995	104.100	20.058	3.978	0.411
97.500	132.531	80.009	19.995	104.100	20.059	3.922	0.401
98.000	132.762	80.009	19.994	104.094	20.059	3.938	0.454
98.500	132.926	80.008	19.994	104.090	20.060	3.870	0.440
99.000	133.137	80.007	19.994	104.089	20.060	3.848	0.385
99.500	133.319	80.008	19.995	104.088	20.059	3.918	0.384
100.000	133.598	80.008	19.994	104.089	20.057	4.090	0.427
100.501	133.819	80.007	19.995	104.095	20.058	3.998	0.481
101.001	134.000	80.007	19.995	104.099	20.062	3.741	0.451
101.500	134.206	80.007	19.995	104.100	20.057	4.074	0.395
102.001	134.449	80.007	19.993	104.101	20.057	4.050	0.418
102.501	134.681	80.008	19.995	104.099	20.057	4.066	0.462
103.001	134.935	80.008	19.995	104.098	20.060	3.863	0.481
103.500	135.128	80.008	19.994	104.097	20.059	3.956	0.466
104.000	135.385	80.009	19.995	104.097	20.056	4.138	0.448
104.501	135.570	80.009	19.996	104.096	20.058	3.996	0.446
105.001	135.810	80.007	19.996	104.098	20.056	4.120	0.434
105.500	136.036	80.009	19.995	104.099	20.058	3.980	0.445
106.000	136.249	80.009	19.995	104.099	20.057	4.066	0.452
106.500	136.485	80.009	19.995	104.099	20.057	4.094	0.444
107.000	136.669	80.009	19.995	104.097	20.059	3.902	0.434
107.501	136.944	80.007	19.996	104.097	20.060	3.841	0.439
108.001	137.169	80.008	19.995	104.097	20.058	4.034	0.480
108.500	137.385	80.009	19.996	104.096	20.057	4.090	0.470
109.001	137.610	80.008	19.996	104.096	20.058	3.996	0.441
109.501	137.823	80.009	19.994	104.097	20.059	3.946	0.440
110.000	138.062	80.008	19.995	104.094	20.059	3.938	0.445
110.500	138.332	80.008	19.996	104.094	20.059	3.940	0.480
111.001	138.551	80.008	19.994	104.094	20.060	3.882	0.499
111.501	138.766	80.009	19.996	104.095	20.057	4.055	0.462
112.000	138.991	80.008	19.994	104.098	20.057	4.083	0.437
112.500	139.222	80.008	19.995	104.101	20.057	4.109	0.448
113.000	139.458	80.010	19.994	104.102	20.058	3.976	0.462
113.500	139.703	80.009	19.995	104.101	20.059	3.896	0.474
114.000	139.940	80.008	19.994	104.101	20.058	3.976	0.481
114.500	140.173	80.009	19.996	104.098	20.056	4.152	0.476
115.000	140.418	80.009	19.995	104.096	20.054	4.327	0.474
115.500	140.612	80.010	19.995	104.091	20.054	4.281	0.459
116.001	140.850	80.009	19.995	104.090	20.057	4.042	0.436
116.501	141.116	80.010	19.995	104.089	20.055	4.233	0.468
117.000	141.373	80.007	19.996	104.091	20.054	4.313	0.513
117.500	141.581	80.011	19.995	104.093	20.057	4.102	0.494
118.000	141.820	80.009	19.995	104.097	20.057	4.080	0.456
118.500	142.068	80.008	19.995	104.099	20.059	3.962	0.467
119.000	142.307	80.010	19.994	104.100	20.057	4.086	0.487
119.500	142.597	80.008	19.996	104.101	20.057	4.081	0.508
120.000	142.806	80.008	19.995	104.100	20.057	4.111	0.514
120.500	143.042	80.009	19.996	104.093	20.057	4.095	0.472
121.000	143.299	80.008	19.996	104.092	20.060	3.874	0.469
121.500	143.547	80.009	19.994	104.087	20.061	3.814	0.499
122.000	143.788	80.008	19.995	104.079	20.062	3.722	0.497
122.500	144.037	80.008	19.996	104.077	20.059	3.928	0.490
123.000	144.278	80.008	19.995	104.083	20.060	3.870	0.490
123.500	144.515	80.008	19.995	104.085	20.056	4.133	0.484
124.000	144.802	80.008	19.997	104.090	20.055	4.203	0.501
124.500	145.061	80.007	19.994	104.096	20.057	4.073	0.535
125.000	145.271	80.007	19.996	104.097	20.057	4.099	0.507
125.501	145.524	80.006	19.996	104.093	20.059	3.949	0.466
126.001	145.775	80.006	19.994	104.090	20.060	3.828	0.483
126.500	146.009	80.024	20.000	104.086	20.059	3.954	0.495
127.000	146.266	80.026	20.001	104.089	20.055	4.205	0.488
127.500	146.501	80.026	20.003	104.092	20.057	4.070	0.492
128.000	146.741	80.026	20.000	104.097	20.055	4.211	0.484
128.500	146.985	80.016	19.999	104.100	20.056	4.131	0.480
129.000	147.205	80.006	19.998	104.099	20.057	4.083	0.474
129.500	147.491	80.007	19.998	104.095	20.058	3.993	0.485
130.000	147.775	80.006	19.997	104.090	20.056	4.167	0.538
130.500	148.030	80.007	19.996	104.084	20.058	3.999	0.555
131.000	148.247	80.005	19.996	104.081	20.057	4.069	0.506
131.500	148.480	80.008	19.996	104.079	20.058	4.005	0.461
132.000	148.760	80.007	19.995	104.075	20.059	3.961	0.481
132.500	149.014	80.006	19.996	104.076	20.055	4.237	0.523
133.000	149.234	80.008	19.995	104.080	20.057	4.083	0.504
133.500	149.495	80.008	19.996	104.082	20.054	4.316	0.477
134.000	149.744	80.009	19.994	104.082	20.053	4.332	0.496
134.500	150.005	80.007	19.994	104.083	20.057	4.089	0.510
135.000	150.287	80.007	19.994	104.082	20.056	4.167	0.526
135.500	150.538	80.007	19.994	104.076	20.057	4.091	0.538
136.000	150.741	80.006	19.994	104.072	20.060	3.837	0.494
136.500	151.042	80.008	19.996	104.073	20.054	4.314	0.479
137.000	151.287	80.007	19.996	104.076	20.056	4.155	0.525
137.500	151.518	80.008	19.996	104.080	20.059	3.957	0.511
138.000	151.733	80.008	19.996	104.083	20.057	4.091	0.461
138.500	152.020	80.006	19.995	104.084	20.057	4.091	0.474
139.000	152.273	80.007	19.997	104.084	20.059	3.957	0.521
139.500	152.515	80.007	19.995	104.083	20.060	3.847	0.517
140.000	152.748	80.008	19.995	104.078	20.059	3.941	0.485
140.500	153.013	80.007	19.994	104.075	20.057	4.053	0.487
141.000	153.248	80.008	19.995	104.074	20.059	3.939	0.499
141.500	153.506	80.007	19.993	104.073	20.058	3.989	0.496
142.000	153.756	80.007	19.995	104.070	20.063	3.632	0.500
142.500	153.987	80.007	19.994	104.070	20.055	4.192	0.495
143.000	154.221	80.007	19.993	104.070	20.060	3.845	0.474
143.500	154.496	80.007	19.995	104.073	20.057	4.055	0.487
144.000	154.705	80.007	19.995	104.073	20.058	4.009	0.496
144.501	154.965	80.008	19.995	104.074	20.057	4.101	0.477
145.001	155.247	80.009	19.994	104.073	20.058	3.983	0.506
145.501	155.490	80.007	19.995	104.072	20.058	4.036	0.533
146.000	155.711	80.007	19.995	104.069	20.057	4.102	0.495
146.500	155.978	80.008	19.994	104.068	20.059	3.927	0.476
147.000	156.215	80.008	19.994	104.067	20.060	3.893	0.496
147.500	156.473	80.008	19.994	104.067	20.058	3.971	0.500
148.000	156.729	80.008	19.995	104.066	20.060	3.875	0.505
148.500	157.006	80.009	19.995	104.066	20.059	3.915	0.524
149.000	157.272	80.007	19.992	104.065	20.059	3.917	0.538
149.500	157.502	80.009	19.997	104.065	20.058	4.038	0.519
150.000	157.733	80.008	19.997	104.064	20.058	4.012	0.479
150.501	157.981	80.008	19.996	104.064	20.057	4.050	0.470
151.000	158.268	80.008	19.996	104.065	20.055	4.212	0.507
151.500	158.477	80.008	19.995	104.065	20.061	3.791	0.515
152.000	158.761	80.009	19.994	104.065	20.059	3.951	0.495
152.500	159.002	80.008	19.994	104.064	20.059	3.927	0.509
153.000	159.256	80.008	19.995	104.064	20.059	3.903	0.510
153.500	159.522	80.007	19.995	104.063	20.061	3.795	0.507
154.001	159.798	80.008	19.994	104.063	20.060	3.831	0.531
154.501	160.047	80.007	19.995	104.062	20.061	3.795	0.534
155.000	160.260	80.006	19.994	104.063	20.061	3.769	0.494
155.500	160.548	80.008	19.994	104.063	20.059	3.904	0.482
156.000	160.795	80.008	19.995	104.061	20.060	3.882	0.517
156.500	161.044	80.006	19.994	104.055	20.061	3.781	0.515
157.000	161.316	80.007	19.994	104.055	20.061	3.759	0.509
157.500	161.568	80.007	19.993	104.055	20.064	3.600	0.523
158.000	161.780	80.007	19.994	104.052	20.062	3.687	0.494
158.500	162.026	80.007	19.995	104.053	20.063	3.669	0.460
159.000	162.269	80.007	19.995	104.058	20.060	3.883	0.473
159.500	162.507	80.008	19.994	104.057	20.061	3.781	0.485
160.000	162.794	80.007	19.994	104.054	20.062	3.735	0.503
160.500	163.021	80.007	19.995	104.053	20.063	3.615	0.520
161.000	163.278	80.007	19.995	104.052	20.063	3.609	0.499
161.500	163.528	80.006	19.994	104.051	20.064	3.565	0.496
162.000	163.755	80.007	19.996	104.052	20.061	3.779	0.492
162.500	164.047	80.008	19.995	104.056	20.064	3.573	0.498
163.000	164.288	80.008	19.995	104.057	20.063	3.629	0.526
163.500	164.488	80.006	19.994	104.056	20.065	3.473	0.487
164.000	164.801	80.009	19.995	104.057	20.068	3.292	0.477
164.500	165.032	80.007	19.995	104.052	20.066	3.392	0.528
165.000	165.280	80.006	19.995	104.045	20.065	3.459	0.512
165.500	165.544	80.008	19.995	104.042	20.063	3.631	0.495
166.000	165.794	80.009	19.995	104.039	20.061	3.755	0.513
166.500	166.013	80.008	19.995	104.036	20.065	3.481	0.492
167.000	166.318	80.008	19.995	104.037	20.065	3.477	0.496
167.500	166.511	80.008	19.994	104.042	20.062	3.703	0.511
168.000	166.772	80.009	19.994	104.046	20.066	3.398	0.476
168.501	167.013	80.007	19.994	104.051	20.066	3.408	0.478
169.001	167.277	80.009	19.994	104.052	20.064	3.539	0.504
169.500	167.498	80.009	19.995	104.049	20.064	3.589	0.495
170.000	167.803	80.010	19.995	104.046	20.063	3.647	0.506
170.500	168.023	80.008	19.995	104.043	20.063	3.627	0.526
171.001	168.282	80.009	19.995	104.039	20.064	3.591	0.502
171.500	168.472	80.009	19.994	104.040	20.063	3.607	0.464
172.000	168.770	80.008	19.994	104.044	20.063	3.635	0.468
172.500	169.001	80.009	19.994	104.045	20.061	3.772	0.508
