Sample ID:	C:\MCC\MCC Cal\Test\Mineral_Wool_Insulation_MCC_30K_min_211112_R3.txt
Sample Weight (mg):	4.38
Heating Rate (C/s):	0.5
Combustor Temp (C):	900
N2 Flow Rate (cc/min):	80
O2 Flow Rate (cc/min):	20
Calibration File:	C:\MCC\MCC Cal\Coeff1 JN10440_30_210304.txt.txt
T Correction Coefficients:	0	1.024463	0
Time Shift (s):	14
*
Time (s)	Temperature (C)	N2 flow rate (cc/min)	O2 flow rate (cc/min)	Flow Rate (cc/min)	Oxygen (%)	HRR (W/g)	Heating rate (C/s)
0.000	107.055	80.002	19.994	102.991	20.018	-0.148	0.021
0.500	107.064	80.001	19.996	102.992	20.019	-0.170	0.035
1.000	107.021	80.002	19.995	102.993	20.017	-0.042	0.006
1.500	107.037	80.003	19.995	102.993	20.015	0.106	-0.031
2.001	107.042	80.003	19.995	102.994	20.018	-0.098	-0.003
2.500	106.998	80.004	19.995	102.995	20.017	-0.058	-0.009
3.000	107.033	80.002	19.994	102.996	20.014	0.130	-0.024
3.500	107.023	80.003	19.995	102.995	20.015	0.092	0.008
4.000	107.010	80.002	19.994	102.992	20.016	-0.004	0.001
4.500	107.031	80.002	19.994	102.991	20.018	-0.112	-0.007
5.000	107.032	80.002	19.994	102.991	20.015	0.124	0.015
5.500	107.043	80.002	19.994	102.990	20.014	0.182	0.017
6.000	107.058	80.002	19.995	102.991	20.015	0.094	0.019
6.500	107.028	80.002	19.994	102.993	20.017	-0.046	0.006
7.000	107.031	80.002	19.994	102.993	20.015	0.108	-0.021
7.500	106.977	80.000	19.994	102.994	20.017	-0.038	-0.039
8.000	107.025	80.000	19.994	102.994	20.013	0.226	-0.028
8.500	107.050	80.000	19.994	102.995	20.015	0.062	0.034
9.000	107.053	80.000	19.994	102.995	20.013	0.248	0.051
9.501	107.038	80.000	19.994	102.996	20.014	0.138	0.007
10.001	107.019	79.999	19.995	102.996	20.014	0.146	-0.023
10.501	107.051	79.999	19.996	102.999	20.013	0.226	-0.011
11.001	107.018	80.000	19.995	103.004	20.011	0.348	0.006
11.500	107.070	79.999	19.996	103.012	20.011	0.418	0.009
12.000	107.004	79.999	19.995	103.019	20.013	0.246	0.003
12.500	107.040	79.999	19.995	103.022	20.013	0.214	-0.022
13.001	107.008	79.999	19.994	103.026	20.011	0.418	-0.013
13.501	107.043	80.000	19.995	103.023	20.011	0.418	0.004
14.000	107.053	79.999	19.995	103.019	20.012	0.334	0.024
14.500	107.067	79.999	19.994	103.013	20.010	0.486	0.034
15.000	107.066	79.998	19.994	103.011	20.012	0.308	0.019
15.500	107.058	79.999	19.995	103.010	20.014	0.190	0.003
16.000	107.050	79.999	19.995	103.016	20.007	0.667	-0.012
16.500	107.065	79.999	19.995	103.020	20.010	0.423	-0.005
17.000	107.052	79.998	19.995	103.026	20.008	0.607	0.005
17.500	107.076	79.999	19.995	103.033	20.010	0.457	0.007
18.000	107.081	80.000	19.995	103.035	20.009	0.505	0.020
18.500	107.082	79.999	19.995	103.033	20.008	0.639	0.017
19.000	107.108	79.999	19.995	103.033	20.005	0.807	0.016
19.500	107.080	80.000	19.995	103.033	20.008	0.575	0.012
20.000	107.083	80.000	19.995	103.033	20.008	0.619	-0.013
20.500	107.113	80.000	19.995	103.036	20.004	0.875	0.004
21.000	107.130	80.000	19.995	103.043	20.004	0.903	0.040
21.500	107.153	80.000	19.995	103.044	20.007	0.669	0.043
22.000	107.119	80.001	19.996	103.045	20.006	0.781	0.015
22.500	107.124	80.000	19.996	103.050	20.004	0.935	-0.020
23.000	107.162	80.000	19.995	103.055	20.002	1.026	0.007
23.500	107.170	80.001	19.996	103.058	20.003	0.970	0.045
24.000	107.180	80.000	19.997	103.068	20.002	1.034	0.032
24.500	107.170	80.000	19.995	103.078	20.003	0.942	0.009
25.000	107.204	80.000	19.996	103.081	20.003	0.954	0.012
25.500	107.212	80.001	19.995	103.085	20.002	1.012	0.033
26.000	107.241	80.001	19.996	103.089	20.000	1.158	0.039
26.500	107.251	80.000	19.994	103.094	19.997	1.381	0.038
27.000	107.303	80.001	19.998	103.098	19.997	1.389	0.050
27.500	107.276	80.001	19.997	103.104	19.998	1.371	0.043
28.000	107.333	80.000	19.996	103.108	19.994	1.613	0.028
28.500	107.382	80.001	19.995	103.109	19.997	1.415	0.069
29.000	107.425	80.000	19.996	103.109	19.995	1.571	0.099
29.500	107.441	80.003	19.997	103.109	19.995	1.541	0.075
30.000	107.483	80.001	19.996	103.110	19.995	1.573	0.058
30.500	107.509	80.000	19.995	103.111	19.995	1.571	0.063
31.000	107.510	80.000	19.996	103.110	19.996	1.517	0.048
31.500	107.572	80.000	19.995	103.114	19.992	1.796	0.045
32.000	107.619	80.000	19.996	103.121	19.992	1.806	0.086
32.500	107.646	80.000	19.996	103.129	19.991	1.864	0.091
33.000	107.687	80.001	19.997	103.135	19.992	1.768	0.071
33.500	107.727	80.002	19.995	103.143	19.987	2.115	0.075
34.000	107.796	80.001	19.996	103.146	19.989	1.969	0.095
34.500	107.813	80.001	19.996	103.147	19.986	2.253	0.097
35.000	107.879	79.999	19.995	103.150	19.987	2.149	0.085
35.500	107.912	80.002	19.995	103.155	19.990	1.913	0.091
36.000	107.942	80.001	19.994	103.158	19.985	2.261	0.081
36.500	108.024	79.999	19.996	103.165	19.985	2.263	0.088
37.000	108.093	80.001	19.996	103.173	19.986	2.231	0.132
37.500	108.147	80.000	19.997	103.178	19.981	2.600	0.137
38.000	108.225	79.999	19.996	103.183	19.984	2.398	0.127
38.500	108.270	79.999	19.996	103.187	19.987	2.153	0.128
39.000	108.329	79.999	19.996	103.188	19.984	2.360	0.114
39.500	108.384	80.000	19.995	103.188	19.984	2.358	0.109
40.000	108.425	80.000	19.996	103.188	19.983	2.460	0.105
40.500	108.520	80.000	19.997	103.188	19.980	2.660	0.116
41.000	108.598	79.999	19.996	103.191	19.979	2.763	0.155
41.500	108.646	79.998	19.996	103.192	19.979	2.704	0.150
42.000	108.734	80.000	19.996	103.192	19.976	2.925	0.131
42.500	108.817	80.000	19.995	103.191	19.974	3.085	0.153
43.001	108.884	80.000	19.996	103.193	19.977	2.857	0.160
43.501	108.969	79.999	19.997	103.198	19.977	2.905	0.151
44.000	109.044	80.000	19.997	103.204	19.979	2.759	0.156
44.501	109.128	79.999	19.997	103.213	19.976	2.957	0.160
45.001	109.244	80.000	19.996	103.221	19.974	3.106	0.180
45.500	109.304	79.998	19.997	103.227	19.973	3.188	0.188
46.000	109.429	79.999	19.996	103.227	19.971	3.294	0.180
46.500	109.505	79.998	19.996	103.227	19.971	3.352	0.193
47.000	109.594	79.999	19.995	103.226	19.975	3.015	0.183
47.500	109.668	79.999	19.996	103.226	19.973	3.158	0.164
48.000	109.804	79.999	19.997	103.226	19.973	3.188	0.186
48.500	109.863	79.997	19.997	103.226	19.971	3.328	0.202
49.001	109.977	79.998	19.996	103.226	19.972	3.220	0.184
49.501	110.083	79.999	19.996	103.228	19.972	3.257	0.197
50.000	110.211	80.000	19.997	103.231	19.971	3.321	0.227
50.501	110.257	80.001	19.998	103.231	19.971	3.343	0.204
51.001	110.446	80.000	19.996	103.231	19.972	3.287	0.205
51.500	110.560	80.000	19.997	103.231	19.972	3.237	0.269
52.000	110.646	79.999	19.997	103.229	19.969	3.473	0.251
52.500	110.778	80.001	19.996	103.225	19.969	3.445	0.209
53.000	110.890	79.999	19.996	103.227	19.970	3.421	0.232
53.500	111.003	80.001	19.995	103.230	19.969	3.480	0.234
54.000	111.126	80.001	19.997	103.232	19.970	3.433	0.230
54.501	111.218	79.999	19.995	103.232	19.968	3.514	0.226
55.001	111.330	80.001	19.996	103.233	19.971	3.305	0.210
55.501	111.485	80.000	19.997	103.232	19.971	3.297	0.235
56.000	111.578	80.001	19.997	103.230	19.968	3.546	0.257
56.500	111.731	80.001	19.996	103.229	19.970	3.415	0.247
57.000	111.820	80.002	19.996	103.229	19.971	3.363	0.244
57.500	112.001	80.001	19.995	103.228	19.971	3.361	0.256
58.000	112.094	80.000	19.994	103.228	19.967	3.602	0.272
58.500	112.256	80.001	19.996	103.228	19.971	3.331	0.264
59.000	112.338	80.001	19.996	103.235	19.967	3.612	0.250
59.500	112.498	80.001	19.996	103.243	19.967	3.592	0.243
60.000	112.666	80.003	19.995	103.251	19.969	3.463	0.285
60.500	112.778	80.001	19.995	103.258	19.970	3.377	0.304
61.000	112.933	80.003	19.993	103.263	19.967	3.590	0.273
61.500	113.069	80.001	19.994	103.261	19.970	3.385	0.278
62.000	113.210	80.001	19.995	103.260	19.970	3.381	0.284
62.500	113.341	80.002	19.994	103.260	19.970	3.371	0.275
63.000	113.519	80.000	19.994	103.260	19.969	3.452	0.291
63.500	113.668	80.001	19.994	103.262	19.969	3.442	0.317
64.000	113.824	80.000	19.994	103.264	19.966	3.702	0.315
64.501	114.006	80.001	19.993	103.266	19.967	3.656	0.322
65.001	114.136	80.001	19.996	103.265	19.965	3.742	0.326
65.500	114.287	80.001	19.994	103.264	19.967	3.632	0.297
66.000	114.458	80.001	19.995	103.264	19.964	3.809	0.301
66.500	114.592	80.002	19.995	103.264	19.968	3.536	0.313
67.000	114.731	80.002	19.995	103.262	19.965	3.744	0.289
67.500	114.929	80.001	19.995	103.263	19.966	3.670	0.306
68.000	115.082	80.002	19.994	103.264	19.964	3.819	0.344
68.501	115.238	80.002	19.995	103.264	19.966	3.668	0.330
69.001	115.415	80.000	19.994	103.263	19.966	3.682	0.321
69.500	115.583	80.001	19.995	103.264	19.965	3.735	0.339
70.000	115.756	80.001	19.994	103.265	19.967	3.630	0.343
70.500	115.901	80.001	19.995	103.263	19.968	3.536	0.330
71.001	116.092	80.000	19.995	103.262	19.970	3.398	0.327
71.501	116.280	80.002	19.995	103.261	19.968	3.544	0.357
72.001	116.422	80.002	19.995	103.260	19.968	3.542	0.354
72.500	116.609	80.001	19.995	103.261	19.971	3.335	0.329
73.000	116.780	80.001	19.995	103.263	19.971	3.339	0.344
73.500	116.924	80.002	19.994	103.264	19.968	3.566	0.337
74.000	117.137	80.001	19.995	103.267	19.970	3.393	0.336
74.501	117.305	80.001	19.995	103.268	19.970	3.432	0.369
75.001	117.481	80.001	19.994	103.268	19.970	3.436	0.362
75.501	117.641	80.001	19.994	103.268	19.970	3.436	0.340
76.001	117.822	80.002	19.995	103.268	19.969	3.468	0.339
76.501	118.031	80.002	19.994	103.269	19.967	3.650	0.366
77.001	118.210	80.003	19.994	103.269	19.968	3.542	0.389
77.500	118.374	80.002	19.995	103.270	19.971	3.319	0.365
78.000	118.564	80.002	19.995	103.270	19.966	3.660	0.348
78.500	118.731	80.001	19.994	103.269	19.967	3.602	0.355
79.000	118.943	80.004	19.995	103.270	19.966	3.694	0.368
79.500	119.145	80.002	19.994	103.271	19.966	3.692	0.397
80.001	119.300	80.002	19.995	103.273	19.971	3.339	0.386
80.501	119.516	80.002	19.994	103.273	19.969	3.508	0.364
81.000	119.693	80.002	19.994	103.273	19.966	3.720	0.382
81.500	119.875	80.003	19.995	103.273	19.966	3.728	0.376
82.000	120.046	80.002	19.994	103.271	19.965	3.736	0.356
82.500	120.276	80.003	19.994	103.270	19.965	3.762	0.377
83.000	120.470	80.003	19.993	103.269	19.967	3.640	0.412
83.500	120.685	80.002	19.993	103.269	19.966	3.698	0.417
84.000	120.878	80.003	19.995	103.269	19.970	3.393	0.409
84.500	121.094	80.003	19.994	103.270	19.966	3.694	0.408
85.000	121.303	80.002	19.994	103.269	19.968	3.542	0.417
85.500	121.534	80.003	19.994	103.269	19.965	3.799	0.432
86.000	121.741	80.003	19.995	103.269	19.966	3.700	0.439
86.501	121.928	80.003	19.994	103.269	19.968	3.538	0.416
87.001	122.165	80.003	19.994	103.268	19.967	3.620	0.409
87.501	122.345	80.002	19.994	103.268	19.968	3.574	0.420
88.001	122.535	80.001	19.994	103.268	19.967	3.630	0.394
88.500	122.763	80.001	19.996	103.267	19.966	3.688	0.394
89.000	122.972	80.002	19.995	103.265	19.970	3.436	0.427
89.500	123.196	80.001	19.994	103.264	19.969	3.474	0.435
90.001	123.395	80.001	19.994	103.264	19.969	3.464	0.428
90.501	123.607	80.000	19.994	103.261	19.967	3.640	0.417
91.000	123.816	80.000	19.995	103.262	19.966	3.698	0.416
91.500	124.068	80.001	19.995	103.262	19.966	3.668	0.441
92.000	124.214	80.001	19.994	103.263	19.969	3.482	0.430
92.500	124.451	80.001	19.994	103.263	19.968	3.532	0.390
93.000	124.627	80.002	19.995	103.266	19.970	3.394	0.398
93.500	124.879	80.001	19.994	103.266	19.967	3.598	0.421
94.000	125.085	80.001	19.994	103.266	19.966	3.678	0.443
94.500	125.269	80.000	19.995	103.267	19.969	3.502	0.424
95.000	125.515	80.001	19.995	103.267	19.966	3.674	0.410
95.500	125.719	80.001	19.994	103.268	19.966	3.721	0.440
96.001	125.988	80.001	19.995	103.268	19.966	3.717	0.462
96.501	126.168	80.002	19.994	103.267	19.970	3.432	0.461
97.000	126.408	80.001	19.994	103.266	19.966	3.694	0.434
97.500	126.617	80.001	19.995	103.267	19.963	3.889	0.434
98.000	126.866	80.001	19.994	103.268	19.967	3.646	0.454
98.500	127.072	80.000	19.994	103.268	19.967	3.628	0.457
99.000	127.272	80.002	19.995	103.268	19.965	3.762	0.431
99.500	127.513	80.001	19.994	103.268	19.966	3.666	0.423
100.000	127.716	80.001	19.996	103.268	19.969	3.486	0.442
100.500	127.966	80.001	19.994	103.267	19.967	3.616	0.448
101.000	128.185	80.001	19.996	103.267	19.970	3.433	0.461
101.500	128.402	80.002	19.994	103.267	19.966	3.730	0.452
102.000	128.676	80.000	19.995	103.267	19.965	3.736	0.464
102.500	128.881	80.002	19.995	103.267	19.966	3.700	0.485
103.000	129.118	80.001	19.995	103.268	19.963	3.939	0.460
103.500	129.369	80.001	19.994	103.270	19.966	3.680	0.465
104.000	129.579	80.002	19.994	103.270	19.967	3.620	0.475
104.500	129.801	80.002	19.995	103.270	19.966	3.680	0.446
105.000	130.060	80.001	19.994	103.270	19.965	3.764	0.456
105.500	130.260	80.000	19.994	103.270	19.968	3.560	0.470
106.000	130.485	80.001	19.995	103.269	19.967	3.656	0.442
106.501	130.722	80.002	19.995	103.272	19.969	3.512	0.444
107.001	130.922	80.002	19.994	103.273	19.966	3.710	0.449
107.500	131.134	80.001	19.994	103.272	19.967	3.654	0.424
108.000	131.405	80.001	19.995	103.272	19.962	3.967	0.447
108.500	131.618	80.001	19.994	103.272	19.965	3.760	0.484
109.000	131.850	80.001	19.996	103.268	19.965	3.784	0.465
109.500	132.099	80.001	19.995	103.268	19.964	3.822	0.463
110.000	132.343	80.002	19.995	103.268	19.966	3.698	0.487
110.500	132.559	80.001	19.996	103.268	19.965	3.776	0.476
111.000	132.814	80.001	19.996	103.266	19.968	3.584	0.465
111.500	133.030	80.000	19.995	103.266	19.964	3.873	0.471
112.000	133.262	80.001	19.995	103.266	19.964	3.875	0.459
112.501	133.488	80.001	19.996	103.265	19.965	3.793	0.453
113.001	133.732	80.001	19.997	103.264	19.966	3.710	0.464
113.500	133.959	80.002	19.995	103.265	19.966	3.694	0.471
114.000	134.198	80.001	19.996	103.264	19.969	3.453	0.468
114.500	134.454	80.002	19.996	103.264	19.967	3.596	0.481
115.000	134.688	80.002	19.995	103.263	19.966	3.672	0.492
115.500	134.939	80.000	19.996	103.262	19.963	3.881	0.487
116.000	135.170	80.001	19.996	103.261	19.968	3.542	0.483
116.500	135.414	80.000	19.994	103.262	19.970	3.406	0.479
117.000	135.657	80.000	19.996	103.262	19.969	3.496	0.481
117.500	135.881	80.001	19.996	103.263	19.968	3.540	0.477
118.000	136.142	79.999	19.995	103.264	19.967	3.610	0.476
118.500	136.390	80.000	19.996	103.264	19.968	3.546	0.497
119.000	136.629	80.000	19.995	103.264	19.968	3.518	0.498
119.500	136.878	80.002	19.996	103.262	19.968	3.574	0.488
120.000	137.111	80.001	19.996	103.262	19.974	3.131	0.485
120.501	137.362	80.000	19.996	103.262	19.967	3.658	0.483
121.001	137.615	80.001	19.996	103.262	19.969	3.455	0.494
121.501	137.860	80.000	19.995	103.263	19.966	3.704	0.501
122.001	138.074	80.001	19.996	103.265	19.968	3.532	0.478
122.500	138.355	80.002	19.995	103.266	19.972	3.259	0.477
123.000	138.574	80.000	19.995	103.266	19.971	3.349	0.498
123.500	138.825	80.000	19.997	103.267	19.970	3.437	0.485
124.000	139.085	79.999	19.996	103.266	19.967	3.614	0.491
124.500	139.324	79.999	19.998	103.264	19.968	3.564	0.505
125.000	139.568	79.999	19.996	103.263	19.968	3.570	0.491
125.501	139.818	79.999	19.996	103.263	19.969	3.467	0.488
126.001	140.047	80.000	19.996	103.264	19.968	3.537	0.486
126.500	140.297	80.000	19.996	103.264	19.968	3.519	0.479
127.001	140.592	80.000	19.996	103.266	19.970	3.386	0.512
127.501	140.812	80.000	19.996	103.268	19.970	3.374	0.531
128.001	141.088	80.001	19.995	103.268	19.971	3.308	0.505
128.501	141.308	79.999	19.996	103.268	19.972	3.272	0.496
129.001	141.553	80.002	19.996	103.268	19.972	3.272	0.480
129.500	141.793	80.001	19.995	103.267	19.973	3.152	0.475
130.000	142.089	80.000	19.995	103.262	19.972	3.285	0.511
130.500	142.319	80.001	19.995	103.263	19.973	3.156	0.531
131.000	142.595	79.999	19.996	103.263	19.973	3.196	0.516
131.500	142.826	80.000	19.995	103.261	19.975	3.070	0.506
132.000	143.061	80.002	19.995	103.261	19.974	3.128	0.486
132.500	143.350	80.001	19.996	103.264	19.973	3.144	0.495
133.000	143.600	80.000	19.993	103.263	19.972	3.222	0.532
133.500	143.861	80.001	19.996	103.261	19.972	3.252	0.525
134.001	144.134	80.000	19.996	103.259	19.973	3.146	0.522
134.501	144.372	80.001	19.995	103.258	19.973	3.204	0.523
135.000	144.666	80.002	19.995	103.257	19.973	3.170	0.522
135.500	144.856	80.002	19.996	103.258	19.973	3.156	0.508
136.000	145.125	80.001	19.995	103.255	19.974	3.090	0.471
136.501	145.409	80.001	19.995	103.251	19.971	3.311	0.506
137.001	145.650	80.001	19.995	103.246	19.972	3.249	0.539
137.500	145.899	80.001	19.995	103.245	19.973	3.156	0.508
138.000	146.146	80.003	19.995	103.238	19.974	3.086	0.493
138.500	146.401	80.001	19.995	103.237	19.974	3.108	0.499
139.000	146.639	80.002	19.995	103.242	19.976	2.974	0.498
139.500	146.879	80.001	19.996	103.247	19.972	3.222	0.486
140.000	147.154	80.002	19.996	103.247	19.974	3.074	0.496
140.500	147.406	80.001	19.995	103.249	19.976	2.989	0.521
141.000	147.647	80.001	19.996	103.251	19.974	3.124	0.510
141.500	147.925	80.002	19.996	103.247	19.972	3.274	0.506
142.000	148.197	80.002	19.995	103.244	19.970	3.380	0.535
142.500	148.439	80.001	19.995	103.242	19.972	3.268	0.532
143.000	148.706	80.001	19.995	103.243	19.971	3.298	0.511
143.500	148.977	80.000	19.996	103.241	19.971	3.354	0.523
144.000	149.240	80.001	19.995	103.241	19.972	3.254	0.536
144.500	149.502	80.001	19.995	103.239	19.974	3.108	0.530
145.000	149.779	80.001	19.995	103.237	19.971	3.363	0.532
145.500	150.052	80.001	19.996	103.236	19.974	3.090	0.544
146.000	150.293	80.001	19.996	103.241	19.972	3.289	0.531
146.500	150.490	80.002	19.996	103.247	19.972	3.226	0.476
147.000	150.785	80.002	19.995	103.251	19.973	3.214	0.466
147.500	151.017	80.001	19.995	103.258	19.975	3.050	0.510
148.000	151.273	80.001	19.996	103.262	19.975	3.061	0.508
148.500	151.552	80.000	19.996	103.257	19.977	2.879	0.511
149.000	151.767	80.001	19.995	103.255	19.975	3.041	0.514
149.501	152.044	80.001	19.995	103.252	19.972	3.276	0.493
150.001	152.301	80.001	19.995	103.245	19.972	3.230	0.513
150.501	152.567	80.000	19.996	103.241	19.969	3.500	0.529
151.001	152.793	80.003	19.995	103.241	19.972	3.288	0.508
151.500	153.063	80.000	19.995	103.237	19.972	3.236	0.494
152.000	153.291	80.002	19.995	103.237	19.975	3.027	0.497
152.500	153.590	80.001	19.995	103.236	19.973	3.212	0.512
153.000	153.777	80.001	19.996	103.236	19.976	2.967	0.507
153.500	154.067	80.002	19.994	103.238	19.975	3.005	0.482
154.000	154.283	80.002	19.996	103.239	19.975	3.061	0.491
154.500	154.526	80.002	19.996	103.239	19.974	3.123	0.482
155.001	154.800	80.002	19.995	103.245	19.976	2.989	0.488
155.501	155.041	80.001	19.996	103.250	19.974	3.125	0.516
156.001	155.267	80.002	19.994	103.248	19.972	3.254	0.491
156.500	155.534	80.002	19.995	103.251	19.975	3.005	0.480
157.001	155.807	80.002	19.994	103.250	19.977	2.921	0.517
157.501	156.042	80.001	19.995	103.244	19.974	3.117	0.524
158.000	156.265	80.003	19.994	103.237	19.977	2.897	0.483
158.500	156.510	80.004	19.994	103.235	19.978	2.835	0.463
159.000	156.816	80.002	19.994	103.231	19.976	2.945	0.509
159.500	157.061	80.002	19.994	103.230	19.974	3.073	0.551
160.000	157.331	80.003	19.995	103.230	19.975	3.053	0.533
160.500	157.587	80.003	19.995	103.229	19.975	3.057	0.521
161.000	157.812	80.003	19.994	103.229	19.980	2.634	0.504
161.501	158.087	80.003	19.994	103.227	19.978	2.821	0.490
162.001	158.356	80.004	19.995	103.228	19.977	2.873	0.522
162.501	158.575	80.003	19.994	103.230	19.977	2.921	0.516
163.000	158.834	80.003	19.995	103.230	19.976	2.977	0.483
163.500	159.055	80.004	19.995	103.230	19.975	3.059	0.480
164.000	159.275	80.004	19.996	103.230	19.973	3.198	0.461
164.501	159.554	80.004	19.994	103.228	19.974	3.091	0.470
165.001	159.790	80.004	19.994	103.226	19.976	2.989	0.507
165.500	160.063	80.003	19.994	103.227	19.973	3.150	0.512
166.000	160.317	80.004	19.995	103.226	19.974	3.123	0.518
166.500	160.555	80.004	19.994	103.227	19.974	3.142	0.509
167.000	160.841	80.004	19.994	103.226	19.974	3.117	0.508
167.500	161.093	80.004	19.994	103.227	19.972	3.250	0.531
168.001	161.341	80.003	19.995	103.227	19.975	3.059	0.519
168.501	161.610	80.003	19.994	103.228	19.971	3.314	0.508
169.000	161.847	80.002	19.995	103.227	19.975	3.031	0.512
169.500	162.103	80.002	19.995	103.227	19.973	3.163	0.500
170.001	162.360	80.002	19.994	103.226	19.974	3.105	0.503
170.501	162.606	80.002	19.994	103.225	19.974	3.127	0.507
171.000	162.848	80.002	19.995	103.226	19.973	3.190	0.495
171.501	163.109	80.001	19.995	103.226	19.970	3.402	0.495
172.001	163.363	80.001	19.993	103.226	19.975	3.007	0.509
172.501	163.606	80.001	19.995	103.226	19.975	2.997	0.506
