Sample ID:	C:\MCC\MCC Cal\Test\Mineral_Wool_Insulation\Mineral_Wool_Insulation_MCC_30K_min_211116_R4.txt
Sample Weight (mg):	4.5
Heating Rate (C/s):	0.5
Combustor Temp (C):	900
N2 Flow Rate (cc/min):	80
O2 Flow Rate (cc/min):	20
Calibration File:	C:\MCC\MCC Cal\Coeff1 JN10440_30_210304.txt.txt
T Correction Coefficients:	0	1.024463	0
Time Shift (s):	14
*
Time (s)	Temperature (C)	N2 flow rate (cc/min)	O2 flow rate (cc/min)	Flow Rate (cc/min)	Oxygen (%)	HRR (W/g)	Heating rate (C/s)
0.000	106.440	80.009	19.997	103.050	19.908	0.033	-0.040
0.499	106.457	80.008	19.996	103.054	19.908	0.033	-0.014
1.000	106.476	80.007	19.995	103.053	19.907	0.070	0.026
1.500	106.434	80.009	19.994	103.053	19.906	0.181	0.007
2.000	106.435	80.008	19.995	103.046	19.905	0.258	-0.031
2.500	106.449	80.008	19.995	103.041	19.906	0.144	-0.013
3.000	106.446	80.009	19.994	103.041	19.905	0.202	0.012
3.500	106.462	80.010	19.995	103.045	19.906	0.142	0.012
3.999	106.452	80.009	19.995	103.045	19.906	0.153	0.010
4.499	106.439	80.010	19.994	103.050	19.907	0.062	-0.009
4.999	106.455	80.010	19.994	103.053	19.904	0.291	-0.010
5.499	106.437	80.009	19.995	103.052	19.905	0.245	0.001
5.999	106.428	80.010	19.994	103.048	19.910	-0.146	-0.015
6.499	106.423	80.010	19.994	103.044	19.907	0.078	-0.021
6.999	106.428	80.010	19.994	103.042	19.910	-0.117	-0.007
7.499	106.453	80.010	19.994	103.043	19.907	0.119	0.015
7.999	106.457	80.011	19.994	103.044	19.908	0.008	0.030
8.499	106.434	80.010	19.993	103.048	19.907	0.049	0.005
8.999	106.469	80.009	19.994	103.053	19.907	0.070	-0.003
9.499	106.433	80.009	19.995	103.055	19.907	0.093	0.005
9.999	106.408	80.011	19.994	103.055	19.906	0.120	-0.031
10.499	106.438	80.011	19.994	103.056	19.906	0.181	-0.028
11.000	106.431	80.011	19.995	103.056	19.907	0.093	0.014
11.501	106.451	80.010	19.994	103.056	19.907	0.095	0.018
12.000	106.410	80.010	19.993	103.056	19.907	0.084	-0.004
12.500	106.442	80.010	19.994	103.056	19.904	0.274	-0.015
13.000	106.424	80.009	19.994	103.055	19.906	0.138	0.003
13.499	106.457	80.009	19.993	103.055	19.905	0.216	0.015
13.999	106.439	80.010	19.994	103.056	19.905	0.243	0.015
14.499	106.409	80.010	19.994	103.060	19.903	0.346	-0.017
14.999	106.436	80.009	19.994	103.064	19.902	0.433	-0.025
15.499	106.449	80.010	19.994	103.066	19.904	0.307	0.019
15.999	106.449	80.010	19.994	103.069	19.904	0.266	0.026
16.499	106.441	80.009	19.994	103.070	19.907	0.093	0.002
16.999	106.461	80.010	19.994	103.068	19.907	0.066	0.002
17.500	106.466	80.010	19.994	103.065	19.909	-0.089	0.019
18.000	106.468	80.010	19.995	103.064	19.905	0.231	0.016
18.500	106.429	80.010	19.994	103.061	19.904	0.303	-0.015
18.999	106.450	80.010	19.994	103.060	19.909	-0.037	-0.027
19.499	106.459	80.009	19.994	103.058	19.908	0.016	0.006
19.999	106.469	80.008	19.995	103.058	19.911	-0.196	0.024
20.499	106.474	80.009	19.995	103.057	19.911	-0.212	0.017
20.999	106.472	80.009	19.993	103.057	19.908	0.000	0.009
21.499	106.478	80.010	19.995	103.056	19.907	0.074	0.004
21.999	106.465	80.009	19.995	103.052	19.908	0.023	-0.001
22.499	106.479	80.010	19.995	103.051	19.909	-0.054	-0.003
22.999	106.447	80.011	19.995	103.049	19.908	0.039	-0.009
23.499	106.470	80.009	19.994	103.047	19.909	-0.058	-0.013
23.999	106.505	80.009	19.995	103.045	19.909	-0.074	0.025
24.499	106.497	80.009	19.995	103.045	19.906	0.132	0.042
24.999	106.491	80.009	19.995	103.046	19.907	0.093	0.006
25.500	106.472	80.008	19.994	103.048	19.908	0.004	-0.020
26.000	106.520	80.009	19.994	103.050	19.907	0.103	0.002
26.499	106.475	80.009	19.996	103.052	19.910	-0.119	0.016
26.999	106.502	80.010	19.994	103.055	19.910	-0.142	-0.007
27.499	106.487	80.011	19.994	103.054	19.909	-0.084	-0.003
27.999	106.510	80.010	19.995	103.054	19.910	-0.156	0.010
28.500	106.492	80.011	19.994	103.054	19.909	-0.055	0.007
29.000	106.469	80.009	19.995	103.053	19.910	-0.113	-0.018
29.500	106.511	80.011	19.994	103.052	19.911	-0.179	-0.011
30.000	106.509	80.011	19.995	103.051	19.906	0.169	0.030
30.500	106.514	80.011	19.994	103.052	19.912	-0.253	0.022
30.999	106.499	80.010	19.995	103.052	19.910	-0.109	-0.004
31.499	106.500	80.011	19.995	103.052	19.907	0.070	-0.012
31.999	106.518	80.011	19.995	103.052	19.906	0.152	0.002
32.499	106.502	80.012	19.996	103.053	19.908	0.033	0.010
32.999	106.531	80.010	19.995	103.050	19.908	-0.016	0.008
33.499	106.534	80.011	19.995	103.050	19.907	0.105	0.023
33.999	106.555	80.012	19.995	103.047	19.905	0.251	0.028
34.500	106.555	80.011	19.996	103.042	19.903	0.353	0.023
35.000	106.543	80.011	19.995	103.041	19.902	0.450	0.005
35.499	106.504	80.010	19.994	103.044	19.900	0.575	-0.031
35.999	106.500	80.012	19.995	103.054	19.900	0.553	-0.047
36.499	106.535	80.012	19.995	103.079	19.893	1.083	-0.006
36.999	106.532	80.010	19.994	103.115	19.893	1.058	0.032
37.499	106.545	80.010	19.994	103.156	19.888	1.426	0.021
37.999	106.550	80.012	19.994	103.200	19.886	1.605	0.013
38.499	106.568	80.010	19.994	103.238	19.886	1.576	0.020
38.999	106.573	80.010	19.995	103.267	19.883	1.814	0.024
39.500	106.587	80.011	19.995	103.283	19.879	2.092	0.022
40.000	106.609	80.010	19.994	103.296	19.882	1.870	0.028
40.499	106.678	80.010	19.995	103.304	19.875	2.378	0.063
40.999	106.700	80.009	19.994	103.312	19.875	2.394	0.090
41.499	106.748	80.008	19.995	103.316	19.871	2.645	0.080
41.999	106.761	80.009	19.995	103.323	19.870	2.704	0.065
42.499	106.799	80.008	19.995	103.327	19.871	2.651	0.056
43.000	106.866	80.009	19.995	103.330	19.866	2.988	0.078
43.500	106.907	80.007	19.994	103.330	19.863	3.243	0.107
43.999	106.962	80.007	19.994	103.330	19.864	3.150	0.102
44.500	107.023	80.008	19.995	103.332	19.861	3.345	0.106
45.001	107.079	80.007	19.995	103.331	19.861	3.372	0.116
45.500	107.175	80.008	19.996	103.332	19.862	3.288	0.134
45.999	107.202	80.008	19.995	103.333	19.860	3.422	0.138
46.499	107.270	80.008	19.995	103.333	19.860	3.428	0.109
46.999	107.336	80.007	19.995	103.333	19.859	3.487	0.115
47.499	107.466	80.007	19.995	103.333	19.861	3.366	0.165
47.999	107.511	80.008	19.994	103.333	19.858	3.588	0.186
48.499	107.580	80.009	19.995	103.332	19.859	3.557	0.144
48.999	107.666	80.007	19.996	103.334	19.858	3.615	0.134
49.499	107.811	80.008	19.995	103.334	19.855	3.828	0.193
49.999	107.842	80.006	19.995	103.334	19.855	3.832	0.204
50.500	107.937	80.008	19.997	103.334	19.856	3.736	0.151
51.001	108.042	80.007	19.994	103.334	19.855	3.830	0.163
51.501	108.127	80.007	19.995	103.332	19.858	3.625	0.195
52.000	108.214	80.008	19.996	103.332	19.856	3.759	0.181
52.499	108.364	80.007	19.996	103.333	19.855	3.787	0.204
52.999	108.451	80.006	19.995	103.333	19.856	3.728	0.237
53.499	108.590	80.007	19.996	103.333	19.854	3.863	0.232
54.000	108.664	80.008	19.996	103.332	19.857	3.689	0.219
54.500	108.800	80.008	19.996	103.333	19.853	3.954	0.211
54.999	108.928	80.007	19.996	103.331	19.854	3.890	0.237
55.499	109.058	80.007	19.995	103.332	19.853	3.978	0.261
55.999	109.158	80.008	19.995	103.331	19.854	3.910	0.244
56.500	109.261	80.008	19.995	103.332	19.854	3.849	0.217
57.000	109.387	80.007	19.995	103.332	19.855	3.843	0.216
57.499	109.474	80.008	19.995	103.333	19.854	3.905	0.221
57.999	109.661	80.007	19.996	103.332	19.854	3.882	0.244
58.499	109.777	80.008	19.995	103.332	19.853	3.935	0.289
58.999	109.889	80.006	19.996	103.332	19.852	4.005	0.265
59.499	110.017	80.006	19.996	103.331	19.854	3.896	0.234
59.999	110.187	80.008	19.996	103.331	19.851	4.065	0.269
60.499	110.313	80.008	19.995	103.331	19.851	4.126	0.297
60.999	110.407	80.008	19.996	103.332	19.854	3.865	0.258
61.499	110.613	80.008	19.996	103.332	19.854	3.872	0.260
61.999	110.725	80.008	19.996	103.331	19.852	4.007	0.309
62.500	110.868	80.008	19.996	103.331	19.852	4.018	0.287
63.000	111.001	80.007	19.996	103.331	19.853	3.977	0.265
63.500	111.172	80.007	19.996	103.331	19.852	4.011	0.290
64.000	111.295	80.010	19.996	103.330	19.856	3.724	0.299
64.499	111.455	80.007	19.995	103.331	19.853	3.973	0.288
64.999	111.616	80.009	19.995	103.332	19.855	3.777	0.302
65.500	111.788	80.008	19.996	103.332	19.854	3.888	0.328
66.000	111.950	80.008	19.995	103.332	19.856	3.740	0.334
66.499	112.114	80.009	19.996	103.333	19.855	3.779	0.330
66.999	112.222	80.007	19.995	103.333	19.857	3.642	0.299
67.499	112.394	80.008	19.995	103.330	19.851	4.059	0.275
67.999	112.523	80.008	19.994	103.328	19.852	3.993	0.290
68.499	112.695	80.008	19.994	103.328	19.853	3.941	0.301
68.999	112.850	80.008	19.995	103.327	19.854	3.870	0.314
69.499	113.001	80.008	19.995	103.327	19.854	3.867	0.316
69.999	113.220	80.008	19.994	103.329	19.858	3.580	0.338
70.499	113.352	80.010	19.994	103.330	19.854	3.900	0.361
70.999	113.552	80.008	19.995	103.330	19.856	3.742	0.342
71.499	113.679	80.008	19.995	103.330	19.857	3.648	0.329
72.000	113.840	80.009	19.995	103.329	19.858	3.568	0.307
72.500	114.076	80.008	19.995	103.329	19.857	3.678	0.342
73.000	114.245	80.009	19.995	103.328	19.856	3.709	0.401
73.500	114.380	80.008	19.994	103.328	19.852	4.001	0.355
74.000	114.614	80.007	19.994	103.328	19.857	3.651	0.337
74.500	114.765	80.008	19.994	103.327	19.857	3.672	0.377
74.999	114.966	80.009	19.994	103.324	19.856	3.736	0.368
75.499	115.159	80.009	19.994	103.324	19.854	3.876	0.373
75.999	115.321	80.008	19.994	103.324	19.856	3.758	0.374
76.500	115.478	80.008	19.995	103.324	19.852	4.023	0.337
77.000	115.697	80.008	19.994	103.325	19.852	4.058	0.348
77.499	115.867	80.009	19.994	103.328	19.849	4.237	0.383
78.000	116.050	80.008	19.995	103.328	19.854	3.904	0.371
78.500	116.261	80.008	19.994	103.328	19.849	4.260	0.373
78.999	116.463	80.008	19.994	103.330	19.852	4.034	0.404
79.499	116.652	80.008	19.993	103.330	19.852	4.009	0.402
79.999	116.840	80.006	19.995	103.330	19.847	4.375	0.384
80.499	117.022	80.009	19.994	103.330	19.851	4.114	0.373
80.999	117.216	80.008	19.994	103.329	19.854	3.878	0.373
81.499	117.454	80.007	19.994	103.328	19.851	4.088	0.404
81.999	117.621	80.009	19.995	103.327	19.852	4.032	0.418
82.499	117.815	80.008	19.994	103.327	19.852	4.010	0.383
82.999	118.026	80.008	19.996	103.327	19.849	4.231	0.383
83.500	118.207	80.008	19.995	103.330	19.852	4.028	0.398
84.001	118.446	80.008	19.995	103.334	19.853	3.946	0.406
84.500	118.640	80.008	19.995	103.336	19.849	4.262	0.427
85.000	118.868	80.009	19.994	103.337	19.850	4.155	0.427
85.501	119.022	80.008	19.995	103.337	19.851	4.061	0.402
86.000	119.235	80.009	19.995	103.335	19.853	3.976	0.374
86.499	119.460	80.007	19.995	103.336	19.851	4.065	0.402
86.999	119.645	80.009	19.994	103.335	19.852	4.016	0.424
87.499	119.841	80.009	19.995	103.335	19.854	3.866	0.395
87.999	120.055	80.009	19.994	103.335	19.851	4.075	0.396
88.499	120.270	80.009	19.996	103.334	19.854	3.905	0.420
88.999	120.466	80.008	19.995	103.330	19.855	3.815	0.420
89.499	120.681	80.009	19.994	103.329	19.853	3.946	0.410
89.999	120.887	80.009	19.994	103.329	19.852	4.022	0.416
90.499	121.122	80.008	19.996	103.328	19.853	3.960	0.432
90.999	121.310	80.008	19.994	103.329	19.850	4.151	0.433
91.499	121.515	80.009	19.995	103.329	19.853	3.948	0.408
91.999	121.719	80.008	19.995	103.327	19.851	4.106	0.401
92.500	121.926	80.011	19.994	103.325	19.853	3.958	0.410
93.001	122.184	80.009	19.994	103.325	19.853	3.958	0.438
93.500	122.385	80.011	19.994	103.324	19.851	4.067	0.462
93.999	122.583	80.009	19.994	103.325	19.855	3.808	0.429
94.499	122.800	80.009	19.994	103.327	19.852	4.024	0.407
94.999	123.047	80.010	19.995	103.328	19.853	3.934	0.439
95.499	123.300	80.010	19.994	103.328	19.853	3.921	0.482
96.000	123.493	80.010	19.994	103.328	19.852	4.057	0.473
96.500	123.681	80.010	19.995	103.328	19.853	3.919	0.413
96.999	123.903	80.009	19.995	103.328	19.854	3.915	0.396
97.499	124.142	80.009	19.995	103.327	19.853	3.974	0.435
97.999	124.369	80.009	19.995	103.327	19.853	3.983	0.464
98.499	124.598	80.009	19.995	103.328	19.854	3.872	0.461
98.999	124.846	80.009	19.994	103.325	19.850	4.143	0.466
99.499	125.032	80.010	19.994	103.322	19.849	4.203	0.455
99.999	125.272	80.010	19.995	103.315	19.851	4.090	0.430
100.499	125.521	80.010	19.994	103.313	19.856	3.765	0.457
100.999	125.721	80.009	19.994	103.313	19.853	3.921	0.469
101.499	125.964	80.011	19.994	103.317	19.852	4.032	0.446
102.000	126.202	80.008	19.995	103.320	19.853	3.923	0.462
102.501	126.459	80.009	19.994	103.326	19.855	3.843	0.488
103.001	126.668	80.008	19.994	103.327	19.853	3.976	0.481
103.500	126.868	80.010	19.994	103.323	19.853	3.956	0.437
103.999	127.126	80.009	19.995	103.322	19.853	3.968	0.433
104.499	127.352	80.009	19.993	103.321	19.852	4.015	0.471
105.000	127.579	80.010	19.995	103.321	19.849	4.233	0.468
105.500	127.836	80.010	19.994	103.320	19.853	3.968	0.468
105.999	128.070	80.011	19.994	103.322	19.853	3.976	0.487
106.500	128.322	80.009	19.994	103.324	19.856	3.748	0.488
107.001	128.523	80.009	19.994	103.326	19.853	3.919	0.470
107.500	128.728	80.010	19.994	103.327	19.852	3.997	0.430
108.000	128.996	80.011	19.994	103.329	19.852	4.026	0.440
108.500	129.213	80.008	19.993	103.329	19.851	4.094	0.479
108.999	129.441	80.011	19.994	103.328	19.855	3.804	0.465
109.499	129.711	80.010	19.994	103.325	19.853	3.969	0.472
109.999	129.963	80.010	19.993	103.325	19.855	3.823	0.510
110.499	130.152	80.010	19.994	103.325	19.853	3.971	0.481
110.999	130.450	80.009	19.993	103.327	19.853	3.960	0.464
111.499	130.674	80.010	19.994	103.330	19.854	3.911	0.504
111.999	130.881	80.010	19.995	103.333	19.854	3.911	0.476
112.499	131.120	80.011	19.994	103.333	19.855	3.818	0.438
112.999	131.331	80.009	19.994	103.332	19.854	3.898	0.448
113.499	131.644	80.010	19.994	103.332	19.856	3.771	0.487
113.999	131.800	80.009	19.994	103.332	19.856	3.705	0.496
114.499	132.105	80.010	19.993	103.332	19.854	3.911	0.465
115.000	132.351	80.011	19.994	103.332	19.855	3.837	0.506
115.500	132.579	80.009	19.993	103.333	19.854	3.899	0.512
115.999	132.835	80.011	19.993	103.334	19.855	3.809	0.479
116.499	133.038	80.010	19.994	103.333	19.854	3.906	0.472
116.999	133.299	80.010	19.995	103.332	19.856	3.762	0.462
117.499	133.535	80.012	19.994	103.332	19.853	3.942	0.480
117.999	133.808	80.012	19.994	103.331	19.854	3.883	0.503
118.500	134.027	80.013	19.994	103.327	19.853	3.983	0.501
119.000	134.259	80.010	19.994	103.326	19.854	3.914	0.472
119.499	134.505	80.011	19.994	103.321	19.853	3.971	0.465
119.999	134.768	80.011	19.993	103.318	19.853	3.961	0.494
120.499	135.018	80.010	19.994	103.319	19.856	3.729	0.511
121.000	135.252	80.011	19.995	103.319	19.852	4.041	0.498
121.500	135.465	80.010	19.995	103.316	19.852	4.000	0.465
121.999	135.730	80.010	19.994	103.321	19.854	3.854	0.462
122.499	135.997	80.010	19.994	103.324	19.855	3.833	0.505
122.999	136.206	80.011	19.994	103.323	19.854	3.889	0.504
123.499	136.468	80.011	19.994	103.325	19.854	3.860	0.474
123.999	136.744	80.010	19.994	103.328	19.855	3.808	0.504
124.499	136.950	80.010	19.995	103.327	19.856	3.716	0.510
124.999	137.243	80.008	19.994	103.323	19.853	3.926	0.491
125.499	137.485	80.009	19.995	103.319	19.855	3.800	0.517
125.999	137.735	80.008	19.994	103.314	19.857	3.675	0.514
126.499	137.977	80.008	19.995	103.308	19.856	3.757	0.492
126.999	138.212	80.009	19.994	103.304	19.857	3.681	0.485
127.499	138.500	80.010	19.994	103.305	19.852	4.006	0.500
128.000	138.725	80.008	19.995	103.305	19.852	4.053	0.517
128.500	138.976	80.008	19.994	103.308	19.853	3.921	0.494
129.000	139.223	80.008	19.995	103.307	19.855	3.822	0.488
129.500	139.468	80.007	19.995	103.308	19.856	3.771	0.495
130.000	139.720	80.007	19.995	103.307	19.854	3.903	0.494
130.500	139.956	80.008	19.993	103.306	19.854	3.860	0.492
131.000	140.199	80.007	19.995	103.302	19.852	4.008	0.483
131.500	140.434	80.008	19.995	103.302	19.854	3.881	0.478
132.000	140.692	80.009	19.995	103.305	19.853	3.984	0.485
132.500	140.963	80.007	19.995	103.308	19.855	3.799	0.511
133.000	141.202	80.007	19.995	103.308	19.853	3.924	0.520
133.500	141.463	80.006	19.995	103.310	19.854	3.850	0.505
134.000	141.712	80.008	19.995	103.314	19.857	3.682	0.505
134.500	141.943	80.006	19.994	103.316	19.854	3.856	0.496
135.000	142.188	80.009	19.994	103.315	19.854	3.871	0.478
135.500	142.450	80.006	19.994	103.315	19.856	3.770	0.491
136.000	142.677	80.008	19.994	103.313	19.854	3.902	0.498
136.500	142.950	80.007	19.996	103.309	19.854	3.848	0.495
137.000	143.182	80.008	19.994	103.305	19.853	3.953	0.503
137.500	143.436	80.007	19.994	103.304	19.851	4.118	0.495
138.000	143.701	80.008	19.994	103.309	19.851	4.101	0.502
138.500	143.988	80.008	19.996	103.314	19.854	3.865	0.536
139.000	144.242	80.008	19.994	103.319	19.853	3.980	0.547
139.500	144.478	80.009	19.994	103.324	19.854	3.910	0.515
140.000	144.787	80.008	19.994	103.325	19.857	3.684	0.517
140.500	144.978	80.009	19.995	103.324	19.856	3.715	0.522
141.000	145.238	80.007	19.994	103.320	19.853	3.960	0.476
141.500	145.525	80.008	19.994	103.314	19.858	3.624	0.499
142.000	145.745	80.008	19.995	103.310	19.856	3.768	0.527
142.500	146.018	80.008	19.994	103.303	19.857	3.688	0.500
143.000	146.270	80.008	19.994	103.299	19.856	3.713	0.509
143.500	146.491	80.008	19.994	103.300	19.861	3.402	0.499
144.000	146.768	80.008	19.995	103.302	19.858	3.581	0.486
144.500	146.989	80.008	19.996	103.302	19.862	3.320	0.498
145.000	147.259	80.009	19.995	103.303	19.858	3.563	0.494
145.500	147.498	80.007	19.994	103.301	19.859	3.528	0.500
146.000	147.746	80.008	19.995	103.298	19.859	3.501	0.498
146.500	148.012	80.007	19.994	103.296	19.859	3.540	0.500
147.000	148.263	80.009	19.995	103.295	19.858	3.616	0.516
147.500	148.532	80.008	19.994	103.292	19.861	3.369	0.519
148.000	148.756	80.008	19.995	103.291	19.859	3.511	0.506
148.500	149.068	80.008	19.995	103.291	19.862	3.306	0.514
149.000	149.289	80.009	19.995	103.291	19.856	3.736	0.534
149.500	149.531	80.008	19.994	103.290	19.863	3.254	0.498
150.000	149.791	80.010	19.995	103.290	19.865	3.082	0.483
150.500	150.052	80.007	19.994	103.290	19.862	3.279	0.512
151.000	150.316	80.009	19.995	103.290	19.864	3.154	0.523
151.500	150.539	80.008	19.994	103.291	19.860	3.425	0.506
152.000	150.779	80.007	19.994	103.291	19.863	3.242	0.475
152.500	151.072	80.008	19.995	103.291	19.861	3.366	0.498
153.000	151.291	80.010	19.995	103.292	19.861	3.353	0.522
153.500	151.522	80.008	19.994	103.291	19.861	3.378	0.481
154.000	151.783	80.008	19.996	103.291	19.862	3.285	0.471
154.500	152.038	80.010	19.994	103.289	19.861	3.364	0.504
155.000	152.298	80.008	19.995	103.289	19.862	3.320	0.515
155.500	152.574	80.008	19.996	103.288	19.863	3.199	0.525
156.000	152.821	80.007	19.996	103.289	19.865	3.125	0.529
156.500	153.088	80.007	19.995	103.289	19.864	3.180	0.518
157.000	153.330	80.009	19.996	103.291	19.861	3.359	0.512
157.500	153.587	80.009	19.996	103.291	19.859	3.516	0.504
158.000	153.826	80.007	19.996	103.291	19.861	3.368	0.497
158.500	154.117	80.007	19.996	103.291	19.862	3.277	0.513
159.000	154.371	80.007	19.995	103.291	19.860	3.456	0.538
159.500	154.594	80.007	19.996	103.289	19.860	3.446	0.511
160.000	154.800	80.007	19.996	103.289	19.862	3.337	0.453
160.500	155.117	80.008	19.995	103.289	19.861	3.372	0.476
161.000	155.322	80.007	19.995	103.289	19.860	3.415	0.522
161.500	155.582	80.006	19.996	103.289	19.861	3.343	0.493
162.000	155.801	80.008	19.997	103.291	19.861	3.392	0.472
162.500	156.052	80.007	19.996	103.289	19.862	3.302	0.474
163.000	156.267	80.009	19.997	103.287	19.860	3.481	0.468
163.500	156.679	80.008	19.996	103.285	19.859	3.542	0.547
164.000	156.660	80.006	19.996	103.284	19.861	3.372	0.511
164.500	157.054	80.006	19.997	103.284	19.860	3.477	0.384
165.000	157.422	80.007	19.996	103.284	19.860	3.466	0.568
165.500	157.559	80.007	19.995	103.284	19.861	3.386	0.633
166.000	157.812	80.007	19.996	103.284	19.864	3.166	0.447
166.500	158.104	80.006	19.995	103.286	19.861	3.399	0.468
167.000	158.312	80.006	19.996	103.286	19.862	3.318	0.523
167.500	158.631	80.008	19.997	103.286	19.864	3.182	0.513
168.000	158.811	80.008	19.996	103.286	19.861	3.357	0.513
168.500	159.094	80.009	19.995	103.286	19.863	3.217	0.482
169.000	159.315	80.007	19.996	103.285	19.865	3.119	0.484
169.500	159.602	80.007	19.994	103.284	19.861	3.343	0.505
170.000	159.817	80.007	19.994	103.285	19.862	3.333	0.505
170.500	160.084	80.008	19.994	103.287	19.861	3.411	0.492
171.000	160.257	80.008	19.994	103.287	19.863	3.265	0.461
171.500	160.529	80.007	19.996	103.285	19.860	3.474	0.442
172.000	160.776	80.008	19.995	103.281	19.864	3.147	0.482
