Sample ID:	C:\MCC\MCC Cal\Test\PP_MCC_30K_min_210928_R3.txt
Sample Weight (mg):	4.86
Heating Rate (C/s):	0.5
Combustor Temp (C):	900
N2 Flow Rate (cc/min):	80
O2 Flow Rate (cc/min):	20
Calibration File:	C:\MCC\MCC Cal\Coeff1 JN10440_30_210304.txt.txt
T Correction Coefficients:	0	1.024463	0
Time Shift (s):	14
*
Time (s)	Temperature (C)	N2 flow rate (cc/min)	O2 flow rate (cc/min)	Flow Rate (cc/min)	Oxygen (%)	HRR (W/g)	Heating rate (C/s)
0.000	107.565	80.006	19.995	100.175	20.099	0.337	0.001
0.499	107.578	80.007	19.996	100.174	20.100	0.307	0.006
1.000	107.555	80.007	19.996	100.174	20.104	0.070	-0.004
1.500	107.547	80.005	19.996	100.174	20.104	0.042	-0.020
2.000	107.576	80.007	19.996	100.174	20.101	0.219	-0.005
2.500	107.554	80.007	19.995	100.175	20.105	0.002	0.014
3.000	107.547	80.007	19.996	100.175	20.105	-0.026	-0.011
3.500	107.543	80.007	19.997	100.175	20.105	-0.004	-0.020
4.000	107.568	80.007	19.995	100.178	20.103	0.116	0.005
4.500	107.551	80.006	19.995	100.178	20.104	0.019	0.015
5.000	107.560	80.007	19.996	100.178	20.104	0.033	0.000
5.500	107.551	80.007	19.996	100.178	20.103	0.126	-0.004
6.000	107.537	80.006	19.995	100.178	20.102	0.202	-0.011
6.500	107.519	80.006	19.995	100.175	20.101	0.253	-0.028
7.000	107.543	80.006	19.994	100.175	20.102	0.197	-0.013
7.500	107.504	80.007	19.996	100.180	20.102	0.144	-0.005
8.000	107.533	80.005	19.994	100.187	20.101	0.267	-0.012
8.500	107.531	80.006	19.994	100.194	20.100	0.306	0.009
9.000	107.564	80.006	19.995	100.203	20.100	0.311	0.029
9.500	107.541	80.006	19.995	100.210	20.098	0.436	0.020
10.000	107.537	80.006	19.995	100.214	20.099	0.339	-0.009
10.500	107.538	80.006	19.996	100.215	20.095	0.599	-0.015
11.000	107.528	80.006	19.995	100.213	20.098	0.415	-0.006
11.500	107.542	80.005	19.995	100.212	20.093	0.735	-0.002
12.000	107.576	80.005	19.995	100.213	20.097	0.520	0.027
12.500	107.562	80.006	19.995	100.215	20.095	0.610	0.034
13.000	107.514	80.005	19.995	100.218	20.098	0.403	-0.021
13.500	107.492	80.004	19.996	100.222	20.095	0.606	-0.066
14.000	107.533	80.005	19.994	100.224	20.095	0.642	-0.026
14.500	107.529	80.005	19.996	100.227	20.096	0.555	0.028
15.000	107.578	80.006	19.994	100.231	20.097	0.494	0.041
15.500	107.571	80.006	19.995	100.238	20.097	0.490	0.043
16.000	107.585	80.006	19.994	100.244	20.094	0.663	0.024
16.500	107.610	80.007	19.994	100.249	20.093	0.758	0.023
17.000	107.585	80.006	19.994	100.245	20.095	0.649	0.020
17.500	107.639	80.006	19.994	100.241	20.095	0.629	0.015
18.000	107.601	80.005	19.994	100.234	20.093	0.756	0.022
18.500	107.616	80.006	19.996	100.233	20.096	0.578	-0.003
19.000	107.607	80.006	19.995	100.235	20.090	0.941	-0.008
19.500	107.665	80.007	19.995	100.245	20.092	0.823	0.027
20.000	107.633	80.008	19.995	100.258	20.090	0.967	0.038
20.500	107.684	80.008	19.994	100.271	20.086	1.190	0.022
21.000	107.688	80.007	19.995	100.281	20.087	1.131	0.037
21.500	107.722	80.007	19.994	100.292	20.088	1.060	0.047
22.000	107.747	80.007	19.994	100.304	20.087	1.157	0.049
22.500	107.746	80.009	19.996	100.310	20.084	1.328	0.042
23.000	107.745	80.008	19.995	100.318	20.083	1.414	0.011
23.500	107.791	80.008	19.995	100.322	20.080	1.574	0.022
24.000	107.821	80.008	19.994	100.325	20.078	1.702	0.061
24.500	107.848	80.008	19.995	100.325	20.081	1.533	0.066
25.000	107.857	80.008	19.994	100.328	20.077	1.767	0.046
25.500	107.902	80.008	19.994	100.329	20.078	1.723	0.045
26.000	107.954	80.010	19.995	100.331	20.076	1.818	0.076
26.500	108.028	80.007	19.994	100.336	20.077	1.794	0.112
27.000	108.058	80.008	19.994	100.342	20.076	1.818	0.115
27.500	108.074	80.008	19.995	100.348	20.077	1.788	0.075
28.000	108.146	80.008	19.995	100.353	20.071	2.142	0.067
28.500	108.160	80.007	19.995	100.358	20.072	2.109	0.087
29.000	108.214	80.010	19.995	100.358	20.074	1.980	0.077
29.500	108.291	80.009	19.995	100.356	20.074	2.005	0.099
30.000	108.300	80.008	19.997	100.353	20.072	2.137	0.109
30.500	108.376	80.007	19.994	100.355	20.068	2.348	0.086
31.000	108.472	80.007	19.995	100.357	20.073	2.033	0.129
31.500	108.490	80.008	19.994	100.360	20.074	1.986	0.143
32.000	108.563	80.008	19.996	100.364	20.070	2.211	0.102
32.499	108.638	80.009	19.994	100.367	20.073	2.067	0.119
33.000	108.700	80.008	19.995	100.367	20.071	2.185	0.142
33.500	108.772	80.008	19.995	100.367	20.070	2.202	0.136
34.000	108.790	80.009	19.994	100.364	20.072	2.123	0.113
34.500	108.895	80.009	19.995	100.358	20.071	2.165	0.107
34.999	108.963	80.007	19.995	100.354	20.072	2.100	0.148
35.499	109.040	80.009	19.995	100.350	20.074	1.982	0.158
35.999	109.089	80.008	19.994	100.350	20.074	1.975	0.135
36.499	109.147	80.009	19.995	100.352	20.075	1.889	0.117
36.999	109.215	80.009	19.995	100.358	20.074	2.007	0.117
37.499	109.297	80.009	19.996	100.363	20.073	2.009	0.138
37.999	109.387	80.007	19.995	100.366	20.071	2.146	0.161
38.499	109.456	80.005	19.992	100.367	20.073	2.011	0.165
39.000	109.546	80.027	19.996	100.368	20.071	2.197	0.159
39.500	109.607	80.027	19.998	100.374	20.074	1.989	0.155
39.999	109.700	80.027	19.996	100.380	20.072	2.113	0.152
40.499	109.771	80.027	19.995	100.384	20.074	1.984	0.159
40.999	109.862	80.024	19.996	100.383	20.073	2.060	0.163
41.500	109.953	80.016	19.995	100.384	20.071	2.141	0.172
42.000	110.031	80.014	19.995	100.383	20.070	2.220	0.176
42.499	110.151	80.012	19.995	100.384	20.069	2.294	0.183
42.999	110.222	80.009	19.995	100.386	20.071	2.155	0.194
43.499	110.322	80.009	19.994	100.387	20.071	2.172	0.181
43.999	110.414	80.009	19.994	100.388	20.067	2.428	0.182
44.500	110.520	80.009	19.995	100.385	20.070	2.215	0.195
45.000	110.603	80.009	19.994	100.382	20.073	2.009	0.194
45.499	110.706	80.010	19.994	100.384	20.071	2.153	0.188
45.999	110.821	80.009	19.994	100.390	20.069	2.313	0.202
46.499	110.918	80.010	19.996	100.393	20.067	2.407	0.215
46.999	111.047	80.011	19.996	100.400	20.067	2.417	0.219
47.499	111.167	80.009	19.995	100.403	20.070	2.238	0.238
47.999	111.249	80.010	19.994	100.404	20.069	2.308	0.226
48.499	111.373	80.010	19.994	100.402	20.068	2.359	0.204
48.999	111.462	80.010	19.994	100.401	20.068	2.348	0.209
49.499	111.603	80.011	19.995	100.399	20.068	2.350	0.222
49.999	111.674	80.009	19.994	100.397	20.067	2.419	0.222
50.499	111.825	80.011	19.995	100.394	20.068	2.387	0.217
50.999	111.961	80.010	19.994	100.394	20.066	2.471	0.254
51.499	112.072	80.010	19.994	100.394	20.068	2.388	0.267
51.999	112.198	80.011	19.995	100.394	20.064	2.624	0.242
52.499	112.330	80.011	19.995	100.396	20.068	2.364	0.247
52.999	112.406	80.010	19.995	100.397	20.065	2.552	0.233
53.499	112.545	80.010	19.995	100.397	20.067	2.396	0.211
53.999	112.663	80.010	19.996	100.400	20.064	2.648	0.236
54.499	112.762	80.010	19.995	100.401	20.062	2.729	0.237
54.999	112.928	80.010	19.995	100.402	20.064	2.602	0.241
55.500	113.025	80.009	19.995	100.403	20.064	2.637	0.264
56.000	113.138	80.009	19.995	100.405	20.062	2.737	0.237
56.499	113.294	80.008	19.995	100.405	20.063	2.683	0.240
56.999	113.388	80.006	19.995	100.406	20.060	2.890	0.260
57.499	113.543	80.008	19.994	100.404	20.062	2.760	0.250
57.999	113.684	80.009	19.995	100.405	20.062	2.760	0.273
58.499	113.818	80.007	19.995	100.405	20.062	2.732	0.285
58.999	113.981	80.006	19.995	100.405	20.060	2.888	0.286
59.500	114.094	80.007	19.995	100.404	20.062	2.769	0.286
60.000	114.256	80.007	19.995	100.405	20.063	2.716	0.275
60.500	114.347	80.008	19.995	100.404	20.061	2.824	0.264
61.000	114.531	80.007	19.996	100.398	20.062	2.744	0.264
61.499	114.630	80.007	19.996	100.391	20.063	2.686	0.279
62.000	114.814	80.006	19.996	100.385	20.063	2.662	0.283
62.500	114.942	80.008	19.995	100.385	20.060	2.871	0.298
62.999	115.111	80.006	19.996	100.386	20.060	2.859	0.305
63.500	115.188	80.006	19.995	100.394	20.061	2.843	0.272
64.000	115.353	80.006	19.996	100.402	20.062	2.750	0.244
64.501	115.487	80.006	19.996	100.408	20.062	2.751	0.271
65.001	115.632	80.006	19.996	100.409	20.059	2.973	0.289
65.499	115.780	80.008	19.995	100.407	20.061	2.841	0.285
65.999	115.940	80.007	19.995	100.403	20.062	2.725	0.300
66.499	116.043	80.007	19.996	100.402	20.060	2.864	0.286
66.999	116.203	80.007	19.996	100.401	20.062	2.757	0.263
67.499	116.329	80.007	19.996	100.399	20.062	2.781	0.275
67.999	116.490	80.007	19.996	100.400	20.061	2.841	0.286
68.499	116.614	80.007	19.995	100.401	20.063	2.685	0.286
68.999	116.767	80.007	19.994	100.401	20.058	3.003	0.281
69.499	116.953	80.008	19.995	100.402	20.062	2.771	0.308
70.000	117.074	80.005	19.996	100.404	20.062	2.736	0.323
70.500	117.233	80.006	19.995	100.405	20.062	2.764	0.294
70.999	117.418	80.006	19.995	100.407	20.058	3.003	0.312
71.499	117.527	80.006	19.995	100.407	20.061	2.806	0.319
71.999	117.690	80.006	19.994	100.408	20.058	3.040	0.283
72.499	117.881	80.007	19.996	100.408	20.061	2.802	0.312
72.999	118.004	80.007	19.995	100.408	20.060	2.906	0.334
73.500	118.150	80.007	19.995	100.408	20.061	2.839	0.292
74.000	118.347	80.007	19.995	100.408	20.060	2.892	0.307
74.499	118.491	80.007	19.994	100.408	20.061	2.799	0.342
74.999	118.644	80.008	19.994	100.408	20.064	2.644	0.319
75.499	118.823	80.007	19.995	100.409	20.061	2.843	0.314
75.999	118.970	80.007	19.996	100.408	20.062	2.743	0.329
76.500	119.131	80.007	19.996	100.408	20.059	2.955	0.317
77.000	119.276	80.007	19.994	100.407	20.066	2.517	0.307
77.499	119.436	80.006	19.994	100.406	20.061	2.794	0.305
77.999	119.600	80.005	19.994	100.406	20.060	2.876	0.315
78.499	119.768	80.007	19.995	100.407	20.063	2.672	0.328
78.999	119.893	80.006	19.995	100.408	20.063	2.688	0.312
79.499	120.071	80.007	19.994	100.409	20.060	2.859	0.298
79.999	120.288	80.007	19.995	100.410	20.064	2.612	0.349
80.499	120.404	80.007	19.995	100.410	20.060	2.857	0.364
80.999	120.587	80.006	19.995	100.409	20.062	2.730	0.316
81.500	120.827	80.007	19.995	100.409	20.061	2.846	0.361
82.000	120.932	80.006	19.995	100.409	20.060	2.899	0.384
82.499	121.109	80.007	19.995	100.410	20.062	2.758	0.313
82.999	121.317	80.006	19.996	100.410	20.064	2.614	0.334
83.499	121.481	80.006	19.996	100.409	20.059	2.913	0.378
83.999	121.624	80.006	19.995	100.410	20.060	2.853	0.339
84.499	121.789	80.005	19.996	100.410	20.061	2.841	0.308
84.999	122.010	80.007	19.995	100.409	20.059	2.938	0.347
85.499	122.134	80.006	19.995	100.407	20.062	2.721	0.366
85.999	122.384	80.006	19.996	100.406	20.060	2.852	0.360
86.499	122.555	80.005	19.996	100.406	20.062	2.723	0.398
86.999	122.699	80.005	19.995	100.406	20.061	2.809	0.368
87.499	122.852	80.006	19.996	100.406	20.062	2.728	0.306
88.000	123.027	80.005	19.996	100.408	20.062	2.760	0.312
88.500	123.223	80.005	19.996	100.409	20.063	2.690	0.349
88.999	123.434	80.006	19.996	100.408	20.063	2.665	0.389
89.499	123.566	80.005	19.995	100.408	20.061	2.790	0.376
89.999	123.756	80.006	19.996	100.408	20.064	2.635	0.333
90.499	123.939	80.005	19.997	100.406	20.060	2.853	0.347
90.999	124.141	80.005	19.997	100.405	20.061	2.839	0.379
91.499	124.226	80.006	19.996	100.405	20.061	2.841	0.336
91.999	124.503	80.006	19.996	100.404	20.063	2.704	0.325
92.499	124.634	80.006	19.996	100.404	20.065	2.530	0.386
92.999	124.874	80.005	19.996	100.405	20.060	2.903	0.390
93.499	125.011	80.007	19.996	100.405	20.061	2.809	0.374
93.999	125.228	80.006	19.996	100.405	20.062	2.720	0.365
94.499	125.359	80.006	19.996	100.405	20.063	2.709	0.351
94.999	125.575	80.005	19.995	100.405	20.062	2.743	0.348
95.499	125.754	80.006	19.996	100.404	20.064	2.620	0.370
95.999	125.977	80.006	19.997	100.404	20.061	2.787	0.399
96.499	126.139	80.006	19.997	100.405	20.062	2.773	0.394
96.999	126.311	80.006	19.996	100.404	20.061	2.811	0.360
97.499	126.517	80.005	19.996	100.405	20.061	2.816	0.356
97.999	126.651	80.008	19.996	100.406	20.062	2.727	0.359
98.499	126.874	80.007	19.996	100.405	20.061	2.827	0.349
98.999	127.046	80.006	19.995	100.405	20.061	2.783	0.376
99.499	127.255	80.007	19.995	100.405	20.061	2.843	0.388
99.999	127.412	80.007	19.995	100.405	20.060	2.904	0.374
100.499	127.626	80.007	19.996	100.406	20.062	2.774	0.369
100.999	127.808	80.010	19.995	100.406	20.062	2.720	0.384
101.499	128.025	80.008	19.995	100.407	20.061	2.816	0.398
101.999	128.147	80.007	19.996	100.407	20.061	2.831	0.369
102.499	128.399	80.008	19.995	100.407	20.062	2.765	0.356
102.999	128.589	80.009	19.994	100.407	20.062	2.718	0.408
103.499	128.767	80.009	19.995	100.407	20.062	2.748	0.405
103.999	128.968	80.008	19.994	100.406	20.063	2.665	0.373
104.499	129.159	80.009	19.996	100.406	20.063	2.674	0.385
104.999	129.358	80.009	19.995	100.407	20.061	2.801	0.391
105.499	129.529	80.010	19.995	100.410	20.059	2.936	0.380
105.999	129.739	80.008	19.995	100.412	20.060	2.866	0.376
106.499	129.961	80.010	19.995	100.412	20.059	2.933	0.407
106.999	130.142	80.009	19.994	100.412	20.059	2.965	0.418
107.499	130.329	80.010	19.995	100.412	20.059	2.940	0.385
107.999	130.536	80.011	19.994	100.408	20.058	2.979	0.380
108.499	130.718	80.009	19.995	100.406	20.062	2.773	0.391
108.999	130.917	80.009	19.995	100.406	20.060	2.854	0.385
109.500	131.103	80.008	19.995	100.406	20.058	3.031	0.383
110.000	131.302	80.009	19.994	100.407	20.058	3.032	0.385
110.499	131.557	80.010	19.996	100.407	20.057	3.055	0.420
110.999	131.700	80.008	19.995	100.408	20.060	2.865	0.426
111.499	131.897	80.009	19.997	100.408	20.059	2.969	0.368
111.999	132.117	80.010	19.996	100.408	20.062	2.744	0.379
112.499	132.338	80.008	19.996	100.408	20.059	2.932	0.429
112.999	132.533	80.007	19.996	100.408	20.057	3.083	0.428
113.500	132.735	80.009	19.996	100.406	20.058	2.993	0.407
114.001	132.928	80.007	19.994	100.403	20.060	2.859	0.396
114.500	133.130	80.007	19.995	100.403	20.058	3.037	0.395
114.999	133.312	80.007	19.995	100.404	20.059	2.971	0.389
115.500	133.503	80.008	19.995	100.408	20.059	2.949	0.378
116.000	133.768	80.007	19.995	100.411	20.057	3.103	0.414
116.499	133.974	80.009	19.995	100.416	20.056	3.149	0.464
116.999	134.173	80.008	19.995	100.419	20.058	2.986	0.438
117.499	134.405	80.008	19.996	100.426	20.058	3.000	0.418
117.999	134.611	80.007	19.996	100.427	20.057	3.063	0.435
118.499	134.796	80.007	19.995	100.424	20.055	3.188	0.415
118.999	135.012	80.007	19.996	100.426	20.056	3.158	0.396
119.499	135.251	80.006	19.996	100.425	20.059	2.938	0.428
119.999	135.460	80.007	19.994	100.419	20.056	3.120	0.452
120.499	135.663	80.007	19.995	100.417	20.057	3.067	0.430
120.999	135.864	80.009	19.995	100.424	20.056	3.122	0.408
121.499	136.076	80.007	19.995	100.428	20.059	2.944	0.409
121.999	136.312	80.008	19.996	100.432	20.056	3.157	0.430
122.499	136.482	80.007	19.994	100.437	20.057	3.064	0.427
122.999	136.743	80.007	19.996	100.441	20.058	2.999	0.418
123.499	136.959	80.008	19.996	100.440	20.055	3.217	0.454
123.999	137.169	80.008	19.995	100.436	20.055	3.222	0.451
124.500	137.408	80.007	19.995	100.430	20.057	3.062	0.437
125.001	137.661	80.006	19.995	100.424	20.055	3.211	0.470
125.500	137.888	80.007	19.995	100.419	20.059	2.967	0.486
125.999	138.069	80.008	19.995	100.413	20.055	3.172	0.444
126.499	138.340	80.009	19.995	100.410	20.056	3.121	0.430
126.999	138.527	80.007	19.995	100.409	20.056	3.125	0.455
127.499	138.757	80.009	19.995	100.413	20.053	3.313	0.437
127.999	138.970	80.009	19.995	100.416	20.057	3.067	0.430
128.500	139.191	80.008	19.995	100.420	20.056	3.137	0.438
129.000	139.439	80.008	19.995	100.423	20.056	3.160	0.451
129.500	139.667	80.008	19.995	100.426	20.058	3.039	0.473
130.000	139.901	80.009	19.996	100.425	20.059	2.965	0.469
130.500	140.141	80.009	19.996	100.423	20.057	3.083	0.468
131.000	140.363	80.008	19.994	100.423	20.057	3.100	0.468
131.500	140.581	80.008	19.995	100.426	20.057	3.042	0.451
132.000	140.821	80.010	19.995	100.431	20.056	3.121	0.449
132.500	141.039	80.008	19.995	100.434	20.058	3.009	0.458
133.000	141.255	80.009	19.994	100.436	20.059	2.937	0.446
133.500	141.533	80.009	19.994	100.438	20.055	3.231	0.464
134.000	141.750	80.009	19.995	100.438	20.053	3.317	0.495
134.500	141.942	80.009	19.995	100.434	20.057	3.058	0.452
135.000	142.201	80.009	19.995	100.431	20.054	3.287	0.430
135.500	142.424	80.009	19.995	100.431	20.056	3.108	0.466
136.000	142.698	80.008	19.995	100.429	20.057	3.069	0.489
136.500	142.915	80.010	19.994	100.425	20.058	3.000	0.494
137.000	143.179	80.009	19.995	100.420	20.056	3.116	0.486
137.500	143.379	80.008	19.995	100.420	20.055	3.178	0.473
138.000	143.641	80.009	19.995	100.418	20.055	3.200	0.463
138.500	143.878	80.009	19.994	100.419	20.058	2.980	0.480
139.000	144.116	80.007	19.995	100.422	20.056	3.167	0.487
139.500	144.374	80.009	19.994	100.424	20.057	3.095	0.486
140.000	144.659	80.008	19.995	100.427	20.058	3.007	0.519
140.500	144.880	80.009	19.995	100.429	20.057	3.074	0.524
141.000	145.111	80.007	19.994	100.427	20.057	3.083	0.479
141.500	145.341	80.007	19.994	100.427	20.058	2.978	0.456
142.000	145.612	80.006	19.995	100.429	20.058	3.027	0.481
142.500	145.864	80.008	19.994	100.427	20.058	3.023	0.513
143.000	146.072	80.006	19.995	100.427	20.059	2.923	0.491
143.500	146.347	80.008	19.995	100.428	20.057	3.076	0.471
144.000	146.597	80.007	19.995	100.430	20.056	3.165	0.504
144.500	146.835	80.007	19.995	100.432	20.057	3.079	0.507
145.000	147.081	80.006	19.995	100.436	20.056	3.156	0.486
145.500	147.374	80.006	19.994	100.436	20.060	2.899	0.511
146.000	147.601	80.006	19.994	100.437	20.058	3.003	0.530
146.500	147.829	80.006	19.995	100.434	20.058	3.008	0.488
147.000	148.085	80.005	19.995	100.431	20.058	2.989	0.469
147.500	148.347	80.006	19.994	100.428	20.059	2.970	0.501
148.000	148.587	80.006	19.995	100.428	20.057	3.043	0.510
148.500	148.839	80.005	19.994	100.425	20.057	3.047	0.497
149.000	149.086	80.005	19.995	100.423	20.056	3.151	0.495
149.500	149.365	80.006	19.995	100.420	20.056	3.128	0.513
150.000	149.610	80.005	19.995	100.418	20.055	3.232	0.525
150.500	149.907	80.006	19.995	100.417	20.059	2.952	0.533
151.000	150.163	80.005	19.995	100.421	20.058	3.010	0.548
151.500	150.409	80.006	19.995	100.427	20.058	2.980	0.528
152.000	150.636	80.005	19.995	100.435	20.059	2.934	0.487
152.500	150.916	80.006	19.995	100.440	20.060	2.899	0.490
153.000	151.158	80.006	19.995	100.440	20.061	2.813	0.514
153.500	151.452	80.006	19.995	100.434	20.058	2.978	0.529
154.000	151.674	80.006	19.996	100.426	20.063	2.707	0.526
154.500	151.951	80.008	19.995	100.421	20.061	2.843	0.507
155.000	152.206	80.007	19.996	100.418	20.062	2.778	0.516
155.500	152.493	80.006	19.996	100.417	20.060	2.899	0.537
156.000	152.704	80.008	19.995	100.417	20.059	2.955	0.520
156.500	153.003	80.006	19.995	100.418	20.062	2.772	0.504
157.000	153.250	80.007	19.995	100.415	20.059	2.943	0.528
157.500	153.488	80.006	19.995	100.412	20.063	2.667	0.516
158.000	153.718	80.006	19.994	100.409	20.061	2.839	0.477
158.500	153.982	80.006	19.996	100.407	20.061	2.839	0.481
159.000	154.243	80.006	19.995	100.405	20.061	2.832	0.510
159.500	154.471	80.007	19.995	100.405	20.062	2.758	0.507
160.000	154.767	80.007	19.995	100.405	20.062	2.737	0.506
160.500	154.982	80.006	19.996	100.406	20.062	2.755	0.517
161.000	155.287	80.007	19.995	100.408	20.062	2.753	0.516
161.500	155.541	80.005	19.996	100.408	20.062	2.765	0.540
162.000	155.784	80.007	19.995	100.408	20.061	2.829	0.528
162.500	156.034	80.008	19.995	100.407	20.063	2.669	0.495
163.000	156.294	80.006	19.996	100.407	20.063	2.660	0.502
163.500	156.533	80.007	19.995	100.405	20.063	2.714	0.505
164.000	156.786	80.007	19.995	100.405	20.061	2.788	0.495
164.500	157.078	80.007	19.995	100.404	20.061	2.785	0.518
165.000	157.351	80.006	19.996	100.405	20.064	2.639	0.555
165.500	157.599	80.007	19.996	100.405	20.059	2.952	0.543
166.000	157.859	80.007	19.996	100.406	20.060	2.871	0.514
166.500	158.155	80.008	19.995	100.406	20.062	2.727	0.531
167.000	158.369	80.007	19.995	100.406	20.061	2.818	0.533
167.500	158.611	80.006	19.995	100.405	20.062	2.751	0.483
168.000	158.871	80.007	19.996	100.405	20.059	2.929	0.479
168.500	159.159	80.007	19.994	100.405	20.058	2.983	0.525
169.000	159.421	80.006	19.995	100.405	20.062	2.778	0.550
169.500	159.676	80.007	19.995	100.405	20.059	2.941	0.534
170.000	159.946	80.006	19.995	100.405	20.062	2.737	0.521
170.500	160.183	80.006	19.995	100.404	20.060	2.859	0.516
171.000	160.395	80.004	19.995	100.404	20.063	2.663	0.478
171.500	160.700	80.005	19.995	100.404	20.063	2.698	0.483
172.000	160.938	80.006	19.996	100.405	20.063	2.716	0.530
172.500	161.202	80.005	19.995	100.406	20.061	2.790	0.522
