Sample ID:	C:\MCC\MCC Cal\Test\PP_MCC_30K_min_210928_R2.txt
Sample Weight (mg):	5
Heating Rate (C/s):	0.5
Combustor Temp (C):	900
N2 Flow Rate (cc/min):	80
O2 Flow Rate (cc/min):	20
Calibration File:	C:\MCC\MCC Cal\Coeff1 JN10440_30_210304.txt.txt
T Correction Coefficients:	0	1.024463	0
Time Shift (s):	14
*
Time (s)	Temperature (C)	N2 flow rate (cc/min)	O2 flow rate (cc/min)	Flow Rate (cc/min)	Oxygen (%)	HRR (W/g)	Heating rate (C/s)
0.000	109.399	80.006	19.995	100.198	20.080	-0.224	-0.002
0.500	109.419	80.005	19.994	100.194	20.075	0.044	-0.006
1.000	109.439	80.005	19.994	100.190	20.074	0.109	0.015
1.500	109.400	80.006	19.994	100.188	20.075	0.041	0.011
2.000	109.429	80.005	19.994	100.183	20.075	0.060	-0.015
2.500	109.405	80.005	19.994	100.181	20.078	-0.140	-0.003
3.000	109.390	80.006	19.994	100.180	20.077	-0.027	-0.017
3.500	109.389	80.006	19.994	100.177	20.076	-0.017	-0.027
4.000	109.370	80.005	19.994	100.175	20.077	-0.073	-0.017
4.500	109.389	80.005	19.995	100.176	20.074	0.114	-0.010
5.000	109.393	80.006	19.995	100.179	20.077	-0.050	0.011
5.500	109.390	80.006	19.995	100.185	20.077	-0.053	0.012
6.000	109.391	80.005	19.995	100.192	20.077	-0.043	-0.000
6.500	109.386	80.005	19.994	100.200	20.075	0.067	-0.003
7.000	109.366	80.005	19.995	100.206	20.076	-0.003	-0.015
7.500	109.355	80.005	19.995	100.211	20.077	-0.077	-0.028
8.001	109.374	80.004	19.995	100.210	20.076	-0.026	-0.012
8.501	109.385	80.005	19.995	100.210	20.076	0.012	0.018
9.000	109.341	80.005	19.994	100.214	20.076	0.005	-0.001
9.500	109.429	80.004	19.994	100.221	20.076	-0.017	0.006
10.000	109.380	80.002	19.994	100.228	20.076	0.024	0.041
10.500	109.409	80.005	19.995	100.238	20.073	0.222	0.010
11.000	109.398	80.006	19.995	100.246	20.074	0.103	-0.001
11.500	109.416	80.005	19.995	100.246	20.073	0.220	0.012
12.000	109.392	80.005	19.995	100.245	20.072	0.226	0.000
12.500	109.417	80.005	19.995	100.246	20.072	0.232	-0.002
13.000	109.433	80.005	19.995	100.246	20.070	0.354	0.021
13.500	109.394	80.004	19.995	100.246	20.072	0.287	0.009
14.000	109.425	80.006	19.994	100.250	20.071	0.294	-0.016
14.500	109.426	80.005	19.996	100.252	20.070	0.407	0.012
15.001	109.407	80.005	19.994	100.254	20.068	0.478	0.007
15.500	109.437	80.006	19.995	100.258	20.069	0.437	-0.004
16.000	109.438	80.005	19.995	100.265	20.072	0.270	0.021
16.500	109.486	80.006	19.995	100.273	20.068	0.506	0.040
17.000	109.457	80.007	19.995	100.281	20.067	0.566	0.034
17.500	109.514	80.006	19.994	100.290	20.065	0.702	0.023
18.000	109.523	80.005	19.995	100.294	20.065	0.668	0.047
18.500	109.560	80.007	19.994	100.297	20.066	0.639	0.056
19.000	109.557	80.006	19.995	100.301	20.064	0.786	0.040
19.500	109.588	80.007	19.995	100.306	20.061	0.965	0.031
20.000	109.608	80.005	19.995	100.308	20.060	1.005	0.040
20.500	109.642	80.006	19.997	100.308	20.062	0.873	0.052
21.000	109.683	80.005	19.996	100.311	20.060	1.031	0.065
21.500	109.711	80.006	19.998	100.315	20.061	0.952	0.072
22.000	109.750	80.006	19.996	100.317	20.056	1.248	0.068
22.500	109.793	80.006	19.997	100.321	20.060	1.032	0.075
23.000	109.799	80.007	19.995	100.327	20.059	1.072	0.065
23.500	109.829	80.007	19.995	100.329	20.057	1.224	0.043
24.000	109.904	80.007	19.996	100.329	20.055	1.330	0.071
24.500	109.910	80.008	19.995	100.329	20.055	1.330	0.093
25.000	109.969	80.006	19.996	100.332	20.054	1.367	0.073
25.500	110.025	80.006	19.997	100.336	20.057	1.191	0.090
26.000	110.061	80.006	19.994	100.342	20.054	1.395	0.103
26.500	110.065	80.006	19.995	100.346	20.055	1.291	0.066
27.000	110.156	80.007	19.996	100.348	20.054	1.376	0.067
27.500	110.218	80.007	19.994	100.349	20.050	1.645	0.124
28.000	110.273	80.006	19.994	100.347	20.053	1.456	0.135
28.500	110.361	80.007	19.994	100.343	20.051	1.559	0.130
29.000	110.384	80.007	19.994	100.341	20.052	1.528	0.127
29.500	110.452	80.006	19.995	100.340	20.053	1.429	0.100
30.000	110.513	80.006	19.995	100.337	20.053	1.431	0.110
30.500	110.567	80.005	19.995	100.338	20.052	1.491	0.123
31.000	110.574	80.005	19.995	100.344	20.054	1.410	0.088
31.500	110.632	80.007	19.994	100.344	20.050	1.644	0.063
32.001	110.715	80.006	19.995	100.350	20.052	1.535	0.103
32.501	110.797	80.007	19.994	100.355	20.049	1.686	0.153
33.001	110.812	80.007	19.994	100.359	20.048	1.768	0.131
33.501	110.914	80.007	19.995	100.359	20.052	1.493	0.107
34.000	110.988	80.006	19.994	100.365	20.048	1.746	0.147
34.500	111.067	80.007	19.994	100.366	20.050	1.633	0.164
35.000	111.127	80.007	19.994	100.368	20.047	1.797	0.145
35.500	111.202	80.007	19.995	100.370	20.047	1.821	0.137
36.000	111.254	80.006	19.995	100.370	20.044	1.983	0.131
36.500	111.368	80.005	19.996	100.372	20.047	1.853	0.147
37.000	111.419	80.007	19.995	100.372	20.044	1.981	0.165
37.500	111.507	80.005	19.994	100.374	20.047	1.853	0.152
38.000	111.591	80.005	19.994	100.377	20.047	1.845	0.156
38.500	111.686	80.006	19.994	100.380	20.043	2.072	0.175
39.000	111.786	80.005	19.994	100.380	20.045	1.968	0.187
39.500	111.833	80.007	19.994	100.380	20.045	1.954	0.171
40.000	111.939	80.007	19.994	100.379	20.044	1.987	0.150
40.501	111.999	80.006	19.994	100.377	20.047	1.848	0.159
41.001	112.070	80.005	19.994	100.375	20.046	1.886	0.149
41.500	112.187	80.006	19.994	100.375	20.047	1.853	0.160
42.000	112.303	80.005	19.993	100.377	20.046	1.894	0.210
42.500	112.376	80.006	19.995	100.377	20.044	2.002	0.211
43.000	112.494	80.005	19.995	100.380	20.044	2.004	0.190
43.500	112.594	80.008	19.995	100.386	20.044	2.040	0.204
44.000	112.676	80.007	19.994	100.391	20.044	1.988	0.200
44.500	112.793	80.006	19.995	100.395	20.044	2.006	0.191
45.000	112.915	80.006	19.995	100.402	20.043	2.065	0.219
45.500	112.996	80.007	19.995	100.402	20.046	1.896	0.221
46.000	113.133	80.005	19.995	100.401	20.042	2.147	0.210
46.500	113.240	80.006	19.995	100.397	20.041	2.219	0.231
47.000	113.294	80.007	19.994	100.393	20.043	2.043	0.203
47.500	113.410	80.007	19.994	100.390	20.039	2.301	0.166
48.000	113.561	80.007	19.994	100.390	20.040	2.289	0.218
48.500	113.628	80.006	19.993	100.393	20.041	2.193	0.242
49.000	113.721	80.007	19.995	100.397	20.041	2.183	0.189
49.500	113.907	80.007	19.995	100.403	20.042	2.134	0.219
50.000	114.010	80.008	19.995	100.406	20.043	2.062	0.284
50.500	114.093	80.008	19.994	100.409	20.042	2.125	0.238
51.000	114.217	80.007	19.994	100.408	20.042	2.118	0.197
51.500	114.339	80.007	19.996	100.404	20.039	2.353	0.227
52.000	114.459	80.006	19.995	100.400	20.042	2.124	0.244
52.500	114.571	80.007	19.995	100.399	20.038	2.404	0.237
53.001	114.655	80.005	19.996	100.397	20.043	2.095	0.214
53.501	114.812	80.006	19.996	100.397	20.040	2.266	0.219
54.001	114.936	80.006	19.995	100.399	20.039	2.307	0.261
54.501	115.081	80.006	19.995	100.399	20.040	2.255	0.275
55.000	115.207	80.006	19.995	100.397	20.041	2.228	0.270
55.500	115.327	80.006	19.995	100.396	20.040	2.276	0.258
56.000	115.484	80.006	19.995	100.390	20.039	2.307	0.261
56.500	115.607	80.007	19.995	100.386	20.040	2.247	0.278
57.000	115.717	80.006	19.995	100.389	20.038	2.416	0.256
57.500	115.856	80.004	19.994	100.389	20.040	2.261	0.241
58.000	116.020	80.005	19.996	100.388	20.040	2.290	0.276
58.500	116.121	80.005	19.995	100.390	20.040	2.271	0.284
59.000	116.281	80.005	19.995	100.393	20.038	2.358	0.263
59.501	116.416	80.004	19.995	100.389	20.039	2.326	0.278
60.001	116.563	80.005	19.995	100.390	20.037	2.432	0.289
60.500	116.711	80.005	19.995	100.393	20.038	2.397	0.289
61.000	116.839	80.005	19.995	100.397	20.039	2.353	0.285
61.500	116.939	80.005	19.994	100.398	20.038	2.356	0.252
62.000	117.085	80.004	19.995	100.402	20.038	2.375	0.237
62.500	117.237	80.005	19.994	100.401	20.042	2.148	0.273
63.000	117.394	80.005	19.996	100.401	20.038	2.368	0.303
63.500	117.523	80.006	19.995	100.401	20.041	2.177	0.297
64.000	117.722	80.005	19.994	100.404	20.040	2.286	0.307
64.500	117.842	80.006	19.994	100.407	20.040	2.279	0.323
65.000	117.980	80.004	19.995	100.410	20.039	2.320	0.288
65.500	118.120	80.006	19.995	100.410	20.039	2.355	0.268
66.000	118.247	80.005	19.996	100.411	20.042	2.160	0.273
66.500	118.409	80.006	19.994	100.410	20.039	2.295	0.278
67.000	118.608	80.004	19.995	100.410	20.043	2.072	0.325
67.501	118.736	80.005	19.995	100.409	20.040	2.262	0.345
68.001	118.881	80.004	19.995	100.409	20.042	2.151	0.300
68.500	119.071	80.005	19.996	100.409	20.041	2.213	0.304
69.000	119.210	80.005	19.995	100.408	20.036	2.485	0.332
69.500	119.395	80.004	19.995	100.408	20.038	2.377	0.327
70.000	119.520	80.004	19.996	100.409	20.037	2.455	0.317
70.500	119.654	80.004	19.995	100.409	20.037	2.467	0.284
71.001	119.829	80.005	19.994	100.408	20.039	2.300	0.284
71.501	119.985	80.004	19.995	100.408	20.041	2.223	0.320
72.000	120.149	80.004	19.995	100.407	20.040	2.255	0.325
72.500	120.323	80.003	19.995	100.406	20.043	2.096	0.329
73.000	120.489	80.005	19.995	100.406	20.043	2.098	0.339
73.500	120.665	80.004	19.997	100.407	20.041	2.175	0.341
74.000	120.822	80.005	19.995	100.408	20.041	2.209	0.338
74.500	121.013	80.004	19.996	100.408	20.039	2.334	0.341
75.000	121.142	80.004	19.996	100.408	20.041	2.203	0.333
75.500	121.307	80.005	19.997	100.408	20.039	2.346	0.307
76.000	121.508	80.005	19.996	100.408	20.037	2.418	0.330
76.501	121.679	80.006	19.995	100.407	20.040	2.263	0.369
77.001	121.845	80.005	19.996	100.407	20.040	2.288	0.355
77.500	122.058	80.005	19.995	100.407	20.043	2.095	0.359
78.000	122.177	80.005	19.996	100.407	20.040	2.264	0.356
78.500	122.380	80.004	19.996	100.406	20.038	2.411	0.327
79.000	122.538	80.004	19.996	100.407	20.038	2.401	0.341
79.501	122.706	80.006	19.996	100.407	20.038	2.377	0.343
80.001	122.899	80.004	19.995	100.407	20.039	2.351	0.344
80.501	123.073	80.004	19.995	100.407	20.037	2.435	0.364
81.000	123.244	80.005	19.995	100.407	20.037	2.426	0.356
81.500	123.437	80.003	19.995	100.407	20.036	2.490	0.355
82.000	123.607	80.003	19.995	100.407	20.035	2.556	0.363
82.500	123.757	80.004	19.995	100.409	20.035	2.586	0.341
83.000	123.935	80.006	19.995	100.409	20.035	2.567	0.324
83.501	124.136	80.006	19.996	100.411	20.037	2.420	0.354
84.001	124.292	80.005	19.995	100.412	20.034	2.658	0.368
84.500	124.458	80.004	19.997	100.412	20.034	2.649	0.340
85.000	124.657	80.006	19.996	100.413	20.037	2.466	0.344
85.500	124.861	80.005	19.996	100.414	20.036	2.484	0.384
86.000	125.046	80.003	19.996	100.418	20.038	2.410	0.395
86.500	125.251	80.004	19.996	100.417	20.037	2.431	0.389
87.000	125.400	80.004	19.996	100.421	20.036	2.482	0.372
87.500	125.624	80.005	19.996	100.426	20.039	2.353	0.363
88.000	125.791	80.005	19.995	100.428	20.039	2.341	0.382
88.500	125.983	80.005	19.997	100.423	20.034	2.618	0.375
89.000	126.183	80.005	19.995	100.422	20.038	2.408	0.376
89.500	126.348	80.005	19.995	100.417	20.037	2.433	0.379
90.000	126.524	80.005	19.996	100.409	20.038	2.382	0.353
90.501	126.754	80.005	19.995	100.406	20.035	2.597	0.373
91.001	126.882	80.004	19.996	100.407	20.035	2.572	0.382
91.501	127.114	80.004	19.997	100.408	20.034	2.621	0.359
92.001	127.291	80.004	19.995	100.408	20.039	2.341	0.385
92.500	127.458	80.005	19.994	100.410	20.037	2.456	0.377
93.000	127.707	80.005	19.995	100.410	20.035	2.555	0.380
93.500	127.847	80.005	19.995	100.411	20.037	2.418	0.402
94.000	128.023	80.004	19.995	100.412	20.037	2.456	0.352
94.500	128.221	80.004	19.995	100.413	20.037	2.425	0.345
95.000	128.410	80.004	19.993	100.418	20.037	2.466	0.381
95.500	128.598	80.004	19.994	100.426	20.035	2.584	0.382
96.000	128.816	80.004	19.994	100.429	20.035	2.575	0.392
96.500	129.001	80.006	19.995	100.435	20.037	2.474	0.404
97.000	129.213	80.005	19.995	100.440	20.037	2.452	0.400
97.500	129.384	80.005	19.994	100.442	20.034	2.640	0.391
98.000	129.614	80.004	19.993	100.438	20.036	2.527	0.392
98.500	129.838	80.006	19.995	100.432	20.035	2.572	0.427
99.000	130.023	80.005	19.994	100.426	20.034	2.632	0.431
99.500	130.229	80.006	19.995	100.420	20.035	2.574	0.400
100.000	130.399	80.005	19.996	100.412	20.033	2.721	0.383
100.500	130.634	80.005	19.994	100.409	20.036	2.522	0.390
101.000	130.801	80.005	19.994	100.410	20.036	2.519	0.404
101.500	131.011	80.006	19.994	100.410	20.036	2.510	0.390
102.000	131.215	80.004	19.994	100.410	20.039	2.319	0.396
102.500	131.465	80.005	19.994	100.411	20.037	2.440	0.434
103.000	131.604	80.006	19.995	100.412	20.041	2.206	0.422
103.500	131.841	80.006	19.996	100.416	20.038	2.397	0.383
104.001	132.076	80.006	19.994	100.423	20.038	2.416	0.424
104.501	132.249	80.004	19.995	100.431	20.041	2.223	0.440
105.000	132.463	80.005	19.996	100.433	20.037	2.447	0.398
105.501	132.672	80.005	19.994	100.432	20.036	2.497	0.405
106.001	132.878	80.006	19.995	100.428	20.038	2.358	0.419
106.501	133.083	80.006	19.995	100.421	20.036	2.541	0.412
107.001	133.282	80.006	19.996	100.414	20.039	2.326	0.407
107.500	133.490	80.006	19.996	100.413	20.036	2.526	0.406
108.000	133.737	80.005	19.996	100.413	20.039	2.309	0.431
108.500	133.950	80.005	19.995	100.412	20.041	2.227	0.457
109.000	134.151	80.005	19.995	100.413	20.037	2.474	0.437
109.500	134.357	80.008	19.994	100.415	20.039	2.336	0.410
110.000	134.591	80.006	19.994	100.415	20.037	2.478	0.424
110.500	134.812	80.005	19.994	100.415	20.037	2.458	0.448
111.000	134.992	80.006	19.994	100.416	20.039	2.348	0.428
111.501	135.195	80.005	19.994	100.417	20.039	2.329	0.392
112.001	135.384	80.004	19.996	100.414	20.039	2.350	0.387
112.501	135.636	80.005	19.996	100.414	20.037	2.461	0.416
113.000	135.855	80.005	19.994	100.414	20.037	2.430	0.456
113.500	136.068	80.004	19.994	100.414	20.039	2.297	0.452
114.001	136.268	80.006	19.995	100.412	20.037	2.478	0.423
114.501	136.515	80.005	19.994	100.412	20.043	2.086	0.430
115.000	136.728	80.006	19.994	100.412	20.042	2.129	0.453
115.500	136.921	80.005	19.994	100.411	20.040	2.257	0.433
116.000	137.195	80.006	19.995	100.411	20.037	2.464	0.437
116.500	137.412	80.006	19.995	100.412	20.037	2.445	0.479
117.000	137.617	80.005	19.995	100.414	20.039	2.329	0.456
117.500	137.845	80.006	19.994	100.418	20.037	2.442	0.427
118.000	138.055	80.005	19.995	100.419	20.036	2.488	0.435
118.500	138.309	80.007	19.995	100.420	20.039	2.297	0.451
119.000	138.507	80.005	19.995	100.419	20.036	2.517	0.458
119.500	138.721	80.005	19.995	100.418	20.039	2.327	0.432
120.000	138.962	80.005	19.994	100.414	20.038	2.416	0.434
120.500	139.168	80.005	19.994	100.414	20.035	2.604	0.451
121.000	139.397	80.004	19.993	100.416	20.037	2.425	0.441
121.500	139.609	80.007	19.995	100.420	20.040	2.279	0.438
122.001	139.832	80.005	19.995	100.422	20.037	2.428	0.437
122.501	140.114	80.006	19.993	100.422	20.038	2.375	0.470
123.001	140.313	80.005	19.994	100.422	20.037	2.438	0.493
123.500	140.566	80.006	19.995	100.420	20.037	2.466	0.466
124.000	140.804	80.005	19.994	100.415	20.042	2.139	0.471
124.500	141.033	80.006	19.994	100.414	20.042	2.148	0.479
125.000	141.230	80.006	19.994	100.414	20.041	2.197	0.447
125.501	141.485	80.006	19.995	100.414	20.040	2.269	0.439
126.001	141.675	80.006	19.995	100.413	20.042	2.134	0.448
126.500	141.900	80.005	19.994	100.413	20.041	2.182	0.430
127.000	142.147	80.007	19.995	100.413	20.041	2.204	0.443
127.500	142.360	80.006	19.994	100.414	20.042	2.114	0.466
128.000	142.620	80.008	19.995	100.414	20.040	2.232	0.467
128.500	142.835	80.006	19.993	100.414	20.039	2.321	0.474
129.000	143.076	80.007	19.995	100.414	20.043	2.078	0.466
129.500	143.307	80.007	19.993	100.413	20.039	2.329	0.464
130.000	143.583	80.008	19.994	100.411	20.041	2.182	0.489
130.500	143.764	80.008	19.995	100.410	20.043	2.100	0.481
131.000	144.010	80.007	19.993	100.410	20.042	2.149	0.442
131.500	144.261	80.008	19.994	100.409	20.042	2.132	0.463
132.000	144.508	80.009	19.995	100.410	20.041	2.204	0.498
132.500	144.774	80.007	19.995	100.412	20.038	2.406	0.505
133.000	144.949	80.008	19.994	100.412	20.040	2.269	0.477
133.500	145.189	80.009	19.994	100.412	20.037	2.479	0.428
134.000	145.429	80.007	19.994	100.411	20.038	2.356	0.448
134.500	145.694	80.007	19.995	100.410	20.039	2.334	0.493
135.000	145.876	80.007	19.994	100.409	20.040	2.290	0.476
135.500	146.159	80.006	19.993	100.408	20.038	2.409	0.456
136.000	146.354	80.008	19.993	100.407	20.038	2.372	0.471
136.500	146.583	80.006	19.995	100.407	20.038	2.384	0.450
137.000	146.856	80.007	19.995	100.407	20.039	2.346	0.463
137.500	147.077	80.006	19.995	100.408	20.039	2.319	0.498
138.000	147.331	80.007	19.995	100.409	20.037	2.467	0.485
138.500	147.576	80.006	19.994	100.409	20.037	2.445	0.487
139.000	147.790	80.006	19.995	100.410	20.036	2.515	0.479
139.500	148.072	80.005	19.995	100.412	20.038	2.414	0.478
140.000	148.290	80.006	19.995	100.412	20.036	2.539	0.498
140.501	148.569	80.004	19.994	100.411	20.037	2.421	0.498
141.000	148.775	80.005	19.993	100.411	20.037	2.420	0.491
141.500	149.003	80.006	19.993	100.411	20.037	2.440	0.460
142.000	149.248	80.004	19.996	100.409	20.039	2.339	0.454
142.500	149.490	80.005	19.995	100.409	20.038	2.387	0.480
143.000	149.762	80.005	19.995	100.409	20.037	2.420	0.501
143.500	149.965	80.005	19.996	100.409	20.038	2.413	0.495
144.000	150.228	80.003	19.995	100.408	20.038	2.365	0.471
144.500	150.441	80.005	19.995	100.408	20.037	2.445	0.471
145.000	150.685	80.005	19.996	100.408	20.036	2.512	0.466
145.500	150.921	80.006	19.996	100.408	20.037	2.474	0.468
146.000	151.166	80.004	19.995	100.408	20.036	2.527	0.480
146.500	151.355	80.005	19.995	100.408	20.037	2.476	0.458
147.000	151.606	80.006	19.996	100.408	20.035	2.560	0.437
147.500	151.839	80.003	19.995	100.408	20.040	2.245	0.462
148.001	152.084	80.003	19.995	100.408	20.037	2.479	0.481
148.500	152.363	80.003	19.996	100.408	20.037	2.459	0.501
149.000	152.581	80.006	19.995	100.408	20.039	2.326	0.510
149.500	152.849	80.003	19.995	100.408	20.039	2.346	0.492
150.000	153.050	80.005	19.997	100.408	20.036	2.502	0.477
150.500	153.303	80.005	19.996	100.408	20.036	2.520	0.461
151.000	153.540	80.003	19.995	100.408	20.040	2.252	0.472
151.500	153.765	80.005	19.996	100.408	20.039	2.336	0.476
152.000	154.015	80.005	19.997	100.411	20.040	2.254	0.468
152.500	154.250	80.004	19.997	100.411	20.041	2.216	0.480
153.000	154.481	80.004	19.998	100.412	20.039	2.331	0.476
153.500	154.706	80.004	19.997	100.412	20.039	2.295	0.462
154.000	154.936	80.004	19.996	100.413	20.039	2.319	0.455
154.500	155.216	80.006	19.997	100.412	20.040	2.235	0.482
155.000	155.418	80.005	19.997	100.412	20.039	2.298	0.496
155.500	155.695	80.004	19.996	100.412	20.039	2.329	0.481
156.000	155.909	80.005	19.998	100.411	20.039	2.305	0.485
156.500	156.130	80.006	19.997	100.410	20.038	2.380	0.463
157.000	156.376	80.005	19.995	100.409	20.041	2.177	0.451
157.500	156.633	80.005	19.997	100.408	20.041	2.225	0.485
158.000	156.874	80.006	19.995	100.408	20.039	2.332	0.500
158.500	157.120	80.005	19.995	100.408	20.040	2.232	0.492
159.000	157.387	80.006	19.996	100.408	20.037	2.420	0.500
159.501	157.614	80.006	19.996	100.408	20.037	2.418	0.504
160.000	157.826	80.007	19.996	100.407	20.038	2.399	0.466
160.500	158.087	80.007	19.995	100.407	20.039	2.343	0.456
161.000	158.333	80.006	19.995	100.406	20.039	2.314	0.490
161.500	158.556	80.005	19.996	100.407	20.036	2.505	0.488
162.000	158.826	80.005	19.995	100.407	20.035	2.594	0.481
162.500	159.081	80.006	19.995	100.407	20.039	2.346	0.510
163.000	159.330	80.004	19.995	100.407	20.035	2.551	0.515
163.500	159.547	80.005	19.996	100.407	20.037	2.437	0.485
164.000	159.837	80.004	19.995	100.407	20.038	2.409	0.486
164.500	160.041	80.006	19.996	100.407	20.037	2.454	0.500
165.000	160.285	80.005	19.995	100.407	20.035	2.585	0.471
165.500	160.502	80.005	19.995	100.407	20.036	2.539	0.454
166.000	160.787	80.005	19.995	100.408	20.037	2.449	0.481
166.501	161.052	80.004	19.996	100.407	20.037	2.442	0.526
167.000	161.284	80.005	19.995	100.407	20.038	2.394	0.523
167.500	161.523	80.004	19.995	100.408	20.037	2.457	0.484
168.000	161.806	80.004	19.996	100.409	20.038	2.404	0.497
168.500	162.003	80.004	19.995	100.409	20.039	2.355	0.501
169.000	162.277	80.004	19.996	100.409	20.039	2.317	0.475
169.500	162.509	80.003	19.996	100.409	20.037	2.442	0.489
170.000	162.757	80.003	19.997	100.409	20.035	2.546	0.493
170.500	162.965	80.004	19.996	100.409	20.039	2.310	0.468
171.000	163.248	80.003	19.997	100.409	20.037	2.466	0.474
171.500	163.495	80.003	19.994	100.410	20.036	2.493	0.510
172.000	163.720	80.004	19.997	100.410	20.037	2.459	0.501
172.500	163.984	80.002	19.996	100.410	20.037	2.447	0.481
