Sample ID:	C:\MCC\MCC Cal\Test\R13_Fiberglas_InsulationB_MCC_30K_min_220216_R3.txt
Sample Weight (mg):	4.39
Heating Rate (C/s):	0.5
Combustor Temp (C):	900
N2 Flow Rate (cc/min):	80
O2 Flow Rate (cc/min):	20
Calibration File:	C:\MCC\MCC Cal\Coeff1 JN10440_30_210304.txt.txt
T Correction Coefficients:	0	1.024463	0
Time Shift (s):	14
*
Time (s)	Temperature (C)	N2 flow rate (cc/min)	O2 flow rate (cc/min)	Flow Rate (cc/min)	Oxygen (%)	HRR (W/g)	Heating rate (C/s)
0.001	112.932	80.009	19.994	103.746	19.934	0.201	-0.024
0.501	112.955	80.009	19.992	103.746	19.937	0.008	0.016
1.000	112.958	80.009	19.993	103.745	19.936	0.092	0.036
1.499	112.943	80.010	19.993	103.745	19.935	0.181	0.007
2.000	112.951	80.009	19.994	103.745	19.938	-0.088	-0.009
2.501	112.920	80.011	19.992	103.745	19.935	0.147	-0.015
3.000	112.921	80.010	19.993	103.746	19.935	0.173	-0.027
3.500	112.899	80.010	19.992	103.746	19.937	0.022	-0.026
4.000	112.926	80.009	19.993	103.746	19.936	0.080	-0.008
4.500	112.914	80.010	19.991	103.746	19.941	-0.291	0.011
5.000	112.894	80.010	19.993	103.745	19.936	0.066	-0.008
5.499	112.916	80.009	19.993	103.745	19.939	-0.135	-0.016
5.999	112.912	80.010	19.993	103.745	19.939	-0.149	0.010
6.499	112.892	80.011	19.993	103.745	19.934	0.219	-0.003
7.000	112.871	80.009	19.993	103.744	19.933	0.313	-0.032
7.500	112.892	80.011	19.993	103.743	19.935	0.127	-0.020
8.000	112.882	80.009	19.993	103.742	19.937	0.012	0.006
8.500	112.886	80.010	19.993	103.741	19.935	0.199	0.003
8.999	112.864	80.010	19.992	103.741	19.935	0.181	-0.012
9.500	112.854	80.010	19.993	103.741	19.932	0.413	-0.025
10.001	112.860	80.010	19.993	103.741	19.931	0.429	-0.018
10.500	112.893	80.011	19.993	103.742	19.932	0.387	0.017
10.999	112.853	80.010	19.993	103.743	19.932	0.419	0.016
11.499	112.863	80.010	19.992	103.743	19.932	0.399	-0.019
11.999	112.882	80.011	19.994	103.747	19.931	0.467	-0.000
12.499	112.889	80.011	19.994	103.752	19.931	0.490	0.028
12.999	112.894	80.010	19.994	103.752	19.930	0.538	0.019
13.499	112.872	80.011	19.992	103.752	19.930	0.544	-0.002
14.000	112.882	80.012	19.993	103.751	19.929	0.590	-0.015
14.500	112.871	80.012	19.993	103.749	19.927	0.720	-0.007
14.999	112.826	80.010	19.994	103.747	19.928	0.678	-0.029
15.499	112.881	80.010	19.994	103.754	19.928	0.646	-0.023
15.999	112.860	80.010	19.993	103.761	19.931	0.493	0.022
16.500	112.869	80.011	19.993	103.769	19.930	0.563	0.011
17.000	112.876	80.011	19.994	103.766	19.929	0.629	0.002
17.500	112.872	80.011	19.993	103.742	19.927	0.732	0.009
18.000	112.877	80.011	19.993	103.726	19.930	0.557	0.002
18.500	112.889	80.009	19.992	103.721	19.927	0.760	0.009
19.000	112.898	80.012	19.993	103.721	19.927	0.776	0.018
19.500	112.895	80.012	19.993	103.733	19.924	0.992	0.013
20.001	112.878	80.010	19.994	103.780	19.925	0.918	-0.006
20.500	112.889	80.010	19.994	103.845	19.922	1.092	-0.012
20.999	112.909	80.009	19.993	103.873	19.922	1.128	0.012
21.500	112.892	80.011	19.995	103.888	19.921	1.186	0.017
22.000	112.881	80.010	19.994	103.899	19.920	1.261	-0.013
22.499	112.901	80.010	19.993	103.897	19.919	1.369	-0.010
23.000	112.908	80.009	19.994	103.865	19.920	1.309	0.018
23.500	112.917	80.010	19.993	103.865	19.917	1.519	0.022
24.000	112.955	80.010	19.994	103.873	19.915	1.667	0.032
24.501	112.958	80.010	19.994	103.883	19.917	1.479	0.043
25.000	112.999	80.011	19.994	103.898	19.916	1.601	0.042
25.500	113.025	80.011	19.993	103.913	19.914	1.697	0.056
26.000	113.058	80.010	19.993	103.922	19.910	1.998	0.063
26.499	113.074	80.011	19.993	103.930	19.907	2.248	0.054
27.000	113.124	80.011	19.993	103.937	19.907	2.232	0.058
27.500	113.120	80.011	19.993	103.944	19.904	2.459	0.056
27.999	113.215	80.011	19.994	103.948	19.905	2.389	0.068
28.499	113.204	80.010	19.993	103.953	19.910	2.034	0.087
28.999	113.259	80.009	19.993	103.959	19.905	2.397	0.064
29.499	113.289	80.010	19.994	103.965	19.904	2.467	0.065
29.999	113.396	80.010	19.994	103.967	19.905	2.415	0.112
30.499	113.441	80.011	19.992	103.971	19.901	2.677	0.144
31.000	113.494	80.010	19.993	103.975	19.900	2.733	0.124
31.500	113.515	80.011	19.992	103.975	19.898	2.892	0.086
31.999	113.629	80.010	19.993	103.972	19.899	2.804	0.105
32.500	113.687	80.011	19.993	103.971	19.896	3.044	0.153
33.000	113.726	80.012	19.992	103.969	19.897	2.968	0.134
33.500	113.773	80.010	19.993	103.968	19.895	3.150	0.092
34.000	113.872	80.010	19.993	103.969	19.895	3.104	0.116
34.499	113.919	80.011	19.992	103.975	19.896	3.074	0.146
34.999	113.979	80.010	19.991	103.977	19.893	3.284	0.126
35.500	114.089	80.012	19.994	103.980	19.895	3.126	0.138
35.999	114.175	80.010	19.994	103.984	19.893	3.260	0.183
36.499	114.227	80.013	19.993	103.985	19.895	3.114	0.167
37.000	114.293	80.011	19.992	103.983	19.896	3.064	0.128
37.501	114.386	80.012	19.991	103.984	19.894	3.198	0.138
38.001	114.527	80.013	19.993	103.983	19.892	3.350	0.197
38.501	114.564	80.013	19.993	103.980	19.892	3.342	0.206
39.001	114.710	80.012	19.994	103.979	19.894	3.228	0.181
39.501	114.779	80.012	19.993	103.980	19.894	3.189	0.199
40.001	114.873	80.011	19.992	103.979	19.896	3.043	0.189
40.500	114.975	80.013	19.993	103.978	19.892	3.307	0.179
41.000	115.084	80.013	19.994	103.978	19.890	3.470	0.204
41.501	115.177	80.011	19.993	103.978	19.892	3.318	0.207
42.000	115.265	80.012	19.993	103.978	19.893	3.292	0.191
42.499	115.392	80.012	19.992	103.977	19.893	3.272	0.198
42.999	115.488	80.012	19.992	103.978	19.892	3.340	0.219
43.499	115.587	80.012	19.992	103.978	19.891	3.406	0.209
44.000	115.669	80.012	19.993	103.979	19.892	3.306	0.188
44.501	115.757	80.013	19.993	103.979	19.891	3.424	0.176
45.000	115.904	80.011	19.993	103.979	19.891	3.450	0.202
45.500	115.979	80.012	19.993	103.980	19.892	3.328	0.228
46.001	116.119	80.010	19.992	103.981	19.893	3.266	0.218
46.500	116.222	80.013	19.992	103.981	19.891	3.392	0.229
46.999	116.339	80.011	19.992	103.981	19.892	3.362	0.232
47.500	116.454	80.011	19.992	103.981	19.891	3.420	0.226
48.001	116.562	80.011	19.992	103.981	19.894	3.223	0.227
48.500	116.692	80.010	19.993	103.982	19.890	3.488	0.230
48.999	116.848	80.012	19.993	103.988	19.893	3.280	0.262
49.500	116.933	80.010	19.993	103.991	19.892	3.364	0.264
50.001	117.046	80.012	19.993	103.998	19.891	3.402	0.220
50.500	117.214	80.009	19.993	104.005	19.895	3.107	0.240
50.999	117.332	80.011	19.993	104.011	19.895	3.151	0.283
51.499	117.471	80.009	19.994	104.012	19.894	3.181	0.271
51.999	117.599	80.010	19.994	104.015	19.892	3.364	0.262
52.500	117.706	80.010	19.993	104.010	19.892	3.317	0.251
53.000	117.838	80.010	19.994	104.008	19.894	3.175	0.237
53.499	117.997	80.011	19.993	104.005	19.894	3.231	0.265
53.999	118.123	80.010	19.994	104.005	19.892	3.355	0.288
54.499	118.237	80.011	19.994	104.006	19.891	3.434	0.262
54.999	118.433	80.011	19.993	104.010	19.891	3.426	0.275
55.499	118.584	80.011	19.993	104.008	19.892	3.324	0.329
55.999	118.710	80.010	19.993	104.005	19.888	3.632	0.312
56.499	118.862	80.011	19.994	104.003	19.891	3.440	0.277
56.999	118.993	80.010	19.993	104.003	19.889	3.540	0.281
57.500	119.108	80.011	19.992	104.003	19.890	3.526	0.264
58.000	119.287	80.010	19.994	104.007	19.892	3.345	0.270
58.500	119.463	80.011	19.992	104.012	19.887	3.710	0.325
59.000	119.611	80.012	19.995	104.012	19.891	3.438	0.340
59.500	119.784	80.012	19.993	104.011	19.888	3.670	0.323
59.999	119.924	80.012	19.993	104.008	19.888	3.616	0.317
60.499	120.039	80.012	19.993	104.007	19.888	3.652	0.284
61.000	120.227	80.012	19.994	104.008	19.887	3.714	0.279
61.500	120.397	80.011	19.993	104.011	19.890	3.472	0.331
62.000	120.552	80.012	19.992	104.012	19.891	3.395	0.341
62.500	120.705	80.012	19.993	104.011	19.887	3.734	0.316
63.001	120.865	80.012	19.993	104.014	19.888	3.640	0.311
63.501	121.053	80.011	19.993	104.013	19.890	3.516	0.331
64.001	121.197	80.012	19.993	104.013	19.888	3.624	0.340
64.501	121.369	80.012	19.993	104.013	19.887	3.682	0.324
64.999	121.546	80.012	19.993	104.015	19.890	3.522	0.333
65.500	121.725	80.011	19.993	104.011	19.889	3.580	0.353
66.001	121.876	80.012	19.993	104.009	19.890	3.526	0.343
66.500	122.089	80.013	19.993	104.009	19.889	3.600	0.347
67.000	122.255	80.012	19.992	104.009	19.890	3.508	0.371
67.500	122.421	80.012	19.991	104.009	19.888	3.606	0.355
67.999	122.589	80.011	19.993	104.015	19.887	3.714	0.333
68.499	122.766	80.013	19.992	104.017	19.886	3.770	0.340
68.999	122.928	80.012	19.992	104.017	19.888	3.606	0.342
69.499	123.101	80.012	19.992	104.017	19.885	3.866	0.337
69.999	123.278	80.011	19.992	104.017	19.886	3.760	0.342
70.499	123.460	80.011	19.993	104.017	19.885	3.832	0.355
70.999	123.641	80.011	19.992	104.016	19.887	3.730	0.361
71.499	123.835	80.011	19.993	104.017	19.886	3.822	0.369
71.999	124.000	80.012	19.993	104.018	19.887	3.689	0.367
72.500	124.153	80.012	19.992	104.019	19.884	3.950	0.338
73.001	124.354	80.011	19.992	104.018	19.884	3.944	0.336
73.501	124.509	80.010	19.993	104.017	19.886	3.752	0.355
74.000	124.709	80.010	19.993	104.017	19.887	3.686	0.355
74.500	124.913	80.011	19.994	104.015	19.885	3.880	0.380
75.000	125.078	80.008	19.994	104.010	19.884	3.948	0.386
75.499	125.302	80.009	19.993	104.005	19.887	3.698	0.378
76.001	125.509	80.011	19.994	104.000	19.886	3.770	0.410
76.500	125.681	80.010	19.995	103.999	19.883	4.032	0.405
77.000	125.849	80.010	19.994	103.999	19.885	3.868	0.360
77.501	126.064	80.010	19.994	104.004	19.884	3.950	0.361
78.001	126.238	80.009	19.994	104.010	19.883	4.026	0.385
78.500	126.461	80.008	19.994	104.015	19.881	4.126	0.393
78.999	126.637	80.009	19.994	104.017	19.880	4.257	0.398
79.500	126.847	80.009	19.993	104.018	19.883	4.036	0.393
80.001	127.029	80.010	19.994	104.019	19.882	4.076	0.389
80.500	127.227	80.010	19.994	104.018	19.884	3.964	0.386
81.000	127.431	80.010	19.994	104.018	19.881	4.148	0.391
81.500	127.639	80.010	19.994	104.023	19.883	4.024	0.406
81.999	127.854	80.009	19.995	104.026	19.881	4.126	0.417
82.500	128.006	80.009	19.994	104.029	19.881	4.162	0.395
83.001	128.226	80.009	19.994	104.033	19.885	3.853	0.370
83.501	128.471	80.010	19.994	104.035	19.883	4.000	0.419
84.001	128.686	80.009	19.994	104.032	19.884	3.948	0.462
84.501	128.877	80.009	19.994	104.029	19.881	4.138	0.432
85.000	129.113	80.009	19.994	104.027	19.883	3.978	0.417
85.500	129.281	80.009	19.994	104.024	19.884	3.918	0.416
86.001	129.483	80.009	19.995	104.022	19.882	4.082	0.387
86.500	129.717	80.009	19.994	104.021	19.882	4.116	0.403
86.999	129.918	80.010	19.994	104.021	19.885	3.868	0.436
87.499	130.136	80.009	19.994	104.023	19.880	4.220	0.427
88.000	130.335	80.008	19.994	104.023	19.884	3.936	0.418
88.501	130.593	80.010	19.995	104.026	19.879	4.321	0.437
89.000	130.788	80.009	19.995	104.028	19.884	3.924	0.455
89.500	130.993	80.010	19.995	104.026	19.883	4.019	0.426
90.000	131.209	80.010	19.995	104.024	19.880	4.205	0.411
90.500	131.412	80.010	19.994	104.024	19.884	3.926	0.420
91.001	131.651	80.010	19.994	104.021	19.883	4.032	0.430
91.501	131.859	80.010	19.994	104.024	19.885	3.884	0.444
92.000	132.068	80.010	19.994	104.029	19.883	3.996	0.432
92.499	132.306	80.009	19.994	104.034	19.883	4.036	0.432
93.000	132.519	80.009	19.994	104.038	19.882	4.080	0.449
93.501	132.768	80.009	19.994	104.041	19.883	3.978	0.457
94.001	132.976	80.010	19.995	104.041	19.883	3.978	0.460
94.501	133.190	80.009	19.994	104.036	19.884	3.946	0.439
95.001	133.403	80.009	19.993	104.030	19.886	3.800	0.424
95.501	133.636	80.008	19.994	104.029	19.884	3.942	0.437
96.001	133.839	80.010	19.995	104.033	19.884	3.950	0.441
96.501	134.081	80.010	19.995	104.034	19.882	4.073	0.440
97.000	134.311	80.010	19.995	104.035	19.885	3.880	0.459
97.500	134.516	80.010	19.994	104.036	19.885	3.854	0.454
98.001	134.767	80.011	19.995	104.032	19.885	3.876	0.446
98.501	134.973	80.011	19.994	104.024	19.884	3.904	0.456
99.001	135.214	80.010	19.995	104.019	19.883	4.042	0.452
99.501	135.436	80.011	19.993	104.018	19.885	3.864	0.455
100.001	135.689	80.012	19.993	104.016	19.886	3.770	0.469
100.501	135.898	80.012	19.993	104.016	19.883	3.992	0.468
101.000	136.159	80.011	19.993	104.017	19.883	4.032	0.466
101.499	136.394	80.010	19.994	104.017	19.883	3.992	0.484
102.000	136.611	80.012	19.993	104.019	19.881	4.169	0.474
102.501	136.868	80.010	19.994	104.022	19.884	3.926	0.462
103.001	137.085	80.012	19.993	104.023	19.882	4.074	0.474
103.500	137.313	80.010	19.993	104.022	19.880	4.264	0.460
104.000	137.572	80.010	19.993	104.022	19.883	3.974	0.466
104.501	137.805	80.009	19.993	104.020	19.882	4.110	0.489
105.000	138.063	80.009	19.993	104.017	19.882	4.070	0.492
105.499	138.283	80.010	19.993	104.017	19.884	3.954	0.485
106.000	138.507	80.010	19.993	104.017	19.882	4.086	0.461
106.500	138.778	80.009	19.993	104.016	19.881	4.134	0.469
106.999	138.993	80.010	19.992	104.016	19.884	3.960	0.491
107.500	139.270	80.009	19.993	104.017	19.885	3.840	0.489
108.000	139.491	80.010	19.993	104.017	19.883	3.998	0.495
108.499	139.749	80.010	19.993	104.019	19.882	4.112	0.489
109.000	139.966	80.010	19.993	104.022	19.885	3.856	0.477
109.501	140.230	80.009	19.992	104.022	19.885	3.874	0.478
110.001	140.489	80.010	19.993	104.023	19.882	4.119	0.502
110.501	140.727	80.008	19.993	104.023	19.885	3.830	0.510
110.999	140.952	80.011	19.993	104.022	19.883	3.992	0.480
111.500	141.212	80.009	19.993	104.020	19.884	3.972	0.474
112.001	141.432	80.010	19.993	104.020	19.885	3.868	0.482
112.501	141.699	80.009	19.995	104.020	19.885	3.890	0.483
113.001	141.927	80.008	19.994	104.021	19.888	3.666	0.491
113.501	142.197	80.010	19.993	104.026	19.883	4.004	0.497
114.000	142.426	80.010	19.993	104.030	19.885	3.850	0.499
114.501	142.668	80.010	19.993	104.030	19.885	3.830	0.485
115.001	142.918	80.010	19.995	104.030	19.883	3.978	0.481
115.501	143.197	80.010	19.993	104.030	19.879	4.271	0.511
116.001	143.411	80.010	19.993	104.025	19.882	4.099	0.511
116.501	143.691	80.009	19.993	104.022	19.883	4.028	0.493
117.000	143.909	80.010	19.994	104.022	19.884	3.920	0.496
117.499	144.159	80.009	19.993	104.022	19.881	4.169	0.483
117.999	144.404	80.009	19.993	104.021	19.879	4.325	0.482
118.500	144.663	80.011	19.993	104.020	19.884	3.912	0.500
119.001	144.920	80.012	19.994	104.019	19.883	4.004	0.510
119.501	145.193	80.011	19.993	104.020	19.885	3.856	0.523
120.001	145.388	80.012	19.993	104.019	19.887	3.736	0.499
120.501	145.667	80.010	19.994	104.019	19.886	3.778	0.471
121.000	145.926	80.012	19.993	104.019	19.886	3.772	0.506
121.499	146.226	80.010	19.992	104.019	19.883	4.031	0.548
122.000	146.414	80.010	19.993	104.018	19.882	4.069	0.524
122.499	146.696	80.011	19.993	104.019	19.883	4.004	0.479
123.000	146.925	80.011	19.994	104.019	19.884	3.926	0.491
123.501	147.177	80.010	19.994	104.019	19.886	3.782	0.496
123.999	147.426	80.009	19.993	104.019	19.886	3.786	0.491
124.500	147.686	80.011	19.993	104.019	19.881	4.141	0.505
125.000	147.918	80.013	19.993	104.018	19.886	3.764	0.501
125.500	148.222	80.010	19.994	104.017	19.885	3.864	0.514
126.000	148.488	80.012	19.993	104.016	19.882	4.055	0.552
126.499	148.696	80.011	19.994	104.017	19.888	3.652	0.522
127.000	149.009	80.011	19.993	104.017	19.886	3.760	0.498
127.501	149.196	80.012	19.993	104.018	19.886	3.823	0.511
128.000	149.511	80.011	19.994	104.018	19.885	3.843	0.501
128.500	149.791	80.011	19.994	104.017	19.885	3.871	0.549
128.999	150.008	80.012	19.992	104.016	19.886	3.805	0.547
129.500	150.232	80.011	19.994	104.016	19.883	4.025	0.469
130.001	150.505	80.011	19.993	104.015	19.886	3.815	0.468
130.501	150.740	80.011	19.993	104.013	19.886	3.753	0.502
131.000	151.013	80.011	19.991	104.013	19.886	3.779	0.508
131.500	151.238	80.011	19.994	104.014	19.887	3.677	0.504
132.001	151.528	80.011	19.993	104.014	19.888	3.652	0.507
132.500	151.750	80.011	19.992	104.016	19.885	3.831	0.513
133.000	152.016	80.011	19.993	104.018	19.890	3.460	0.500
133.500	152.272	80.011	19.993	104.018	19.887	3.745	0.505
134.000	152.530	80.010	19.994	104.018	19.887	3.697	0.518
134.500	152.815	80.011	19.993	104.018	19.887	3.731	0.528
134.999	153.025	80.011	19.992	104.017	19.892	3.368	0.519
135.500	153.305	80.010	19.992	104.014	19.889	3.595	0.493
136.001	153.566	80.010	19.993	104.010	19.888	3.637	0.515
136.501	153.830	80.010	19.993	104.010	19.890	3.505	0.533
137.001	154.111	80.012	19.993	104.008	19.890	3.465	0.535
137.501	154.359	80.010	19.992	104.005	19.889	3.535	0.537
138.000	154.604	80.012	19.994	104.004	19.890	3.495	0.511
138.500	154.821	80.010	19.993	104.006	19.887	3.735	0.477
139.000	155.081	80.011	19.993	104.006	19.890	3.485	0.469
139.499	155.317	80.012	19.993	104.003	19.888	3.665	0.487
140.000	155.586	80.012	19.993	104.000	19.888	3.613	0.501
140.500	155.858	80.012	19.993	103.998	19.890	3.504	0.523
140.999	156.111	80.012	19.992	103.994	19.891	3.428	0.533
141.500	156.346	80.011	19.992	103.991	19.889	3.531	0.506
142.000	156.593	80.012	19.993	103.994	19.890	3.503	0.485
142.500	156.889	80.012	19.993	104.000	19.890	3.501	0.513
143.000	157.119	80.012	19.992	104.003	19.890	3.493	0.535
143.500	157.403	80.012	19.993	104.002	19.892	3.349	0.520
144.001	157.669	80.011	19.993	104.001	19.890	3.523	0.532
144.500	157.915	80.011	19.993	103.998	19.888	3.657	0.531
145.000	158.183	80.012	19.993	103.992	19.890	3.509	0.513
145.500	158.439	80.011	19.993	103.987	19.887	3.705	0.519
145.999	158.726	80.012	19.992	103.985	19.891	3.391	0.534
146.500	158.946	80.013	19.993	103.983	19.889	3.565	0.525
146.999	159.213	80.012	19.993	103.982	19.891	3.391	0.497
147.500	159.463	80.012	19.993	103.985	19.891	3.411	0.502
148.000	159.701	80.012	19.994	103.988	19.891	3.443	0.502
148.499	159.968	80.012	19.992	103.988	19.893	3.240	0.497
148.999	160.237	80.012	19.992	103.990	19.891	3.397	0.521
149.499	160.475	80.013	19.993	103.989	19.891	3.433	0.521
149.999	160.755	80.013	19.993	103.988	19.890	3.459	0.513
150.499	161.026	80.011	19.994	103.988	19.892	3.309	0.535
151.000	161.277	80.013	19.992	103.991	19.890	3.457	0.536
151.499	161.489	80.012	19.993	103.992	19.889	3.595	0.492
151.999	161.756	80.013	19.993	103.989	19.887	3.709	0.471
152.499	161.980	80.011	19.993	103.986	19.888	3.663	0.485
153.000	162.252	80.013	19.993	103.985	19.893	3.284	0.493
153.500	162.535	80.012	19.993	103.981	19.892	3.318	0.525
153.999	162.789	80.012	19.993	103.978	19.890	3.453	0.546
154.499	163.031	80.011	19.993	103.979	19.888	3.617	0.517
154.999	163.330	80.012	19.994	103.978	19.896	3.052	0.519
155.499	163.543	80.012	19.995	103.977	19.891	3.423	0.527
155.999	163.798	80.012	19.994	103.981	19.893	3.271	0.490
156.499	164.073	80.011	19.994	103.981	19.893	3.267	0.499
157.000	164.343	80.013	19.993	103.982	19.893	3.287	0.538
157.500	164.599	80.012	19.993	103.984	19.895	3.142	0.535
158.000	164.846	80.012	19.993	103.983	19.895	3.108	0.514
158.500	165.099	80.010	19.994	103.979	19.892	3.305	0.501
159.001	165.399	80.011	19.994	103.979	19.893	3.277	0.526
159.501	165.631	80.010	19.994	103.977	19.891	3.383	0.542
160.001	165.892	80.011	19.995	103.975	19.893	3.242	0.513
160.500	166.167	80.011	19.994	103.977	19.892	3.331	0.515
160.999	166.411	80.012	19.993	103.977	19.892	3.345	0.528
161.499	166.691	80.010	19.994	103.977	19.892	3.359	0.522
161.999	166.938	80.011	19.994	103.977	19.894	3.168	0.525
162.499	167.182	80.011	19.994	103.978	19.894	3.230	0.509
163.000	167.422	80.011	19.993	103.977	19.893	3.281	0.488
163.500	167.621	80.009	19.993	103.979	19.893	3.293	0.462
164.000	167.912	80.009	19.994	103.980	19.893	3.247	0.465
164.500	168.190	80.010	19.994	103.981	19.893	3.303	0.529
164.999	168.434	80.011	19.992	103.980	19.892	3.331	0.546
165.500	168.644	80.010	19.994	103.980	19.893	3.269	0.488
166.000	168.913	80.011	19.993	103.977	19.891	3.411	0.466
166.499	169.168	80.010	19.993	103.973	19.894	3.225	0.502
167.000	169.453	80.011	19.993	103.973	19.894	3.184	0.532
167.499	169.710	80.010	19.993	103.973	19.895	3.142	0.541
167.999	169.975	80.011	19.993	103.973	19.896	3.036	0.532
168.499	170.228	80.011	19.993	103.973	19.892	3.369	0.519
168.999	170.477	80.010	19.993	103.975	19.893	3.283	0.510
169.499	170.700	80.009	19.994	103.976	19.893	3.232	0.488
170.000	170.997	80.010	19.995	103.977	19.892	3.343	0.496
170.500	171.190	80.009	19.994	103.977	19.889	3.539	0.504
171.000	171.512	80.012	19.994	103.978	19.898	2.922	0.502
171.499	171.740	80.011	19.994	103.978	19.894	3.181	0.533
172.000	172.011	80.011	19.994	103.977	19.892	3.321	0.524
172.501	172.215	80.009	19.994	103.977	19.893	3.277	0.487
