Sample ID:	C:\MCC\MCC Cal\Test\Pine_Siding\Pine_Siding_30_3.txt
Sample Weight (mg):	4.46
Heating Rate (C/s):	0.5
Combustor Temp (C):	900
N2 Flow Rate (cc/min):	80
O2 Flow Rate (cc/min):	20
Calibration File:	C:\MCC\MCC Cal\Coeff1 JN10440_30_210304.txt.txt
T Correction Coefficients:	0	1.024463	0
Time Shift (s):	14
*
Time (s)	Temperature (C)	N2 flow rate (cc/min)	O2 flow rate (cc/min)	Flow Rate (cc/min)	Oxygen (%)	HRR (W/g)	Heating rate (C/s)
0.000	112.473	79.986	19.991	99.952	19.961	-0.168	-0.026
0.500	112.487	79.983	19.991	99.952	19.964	-0.405	0.003
1.000	112.478	79.982	19.991	99.952	19.964	-0.398	0.016
1.500	112.481	79.984	19.992	99.952	19.960	-0.153	-0.000
2.000	112.484	79.982	19.990	99.952	19.958	-0.013	0.000
2.500	112.449	79.983	19.991	99.952	19.957	0.092	-0.013
3.000	112.430	79.983	19.991	99.952	19.962	-0.251	-0.043
3.500	112.496	79.982	19.990	99.951	19.964	-0.445	-0.003
4.000	112.449	79.983	19.991	99.951	19.963	-0.305	0.033
4.500	112.447	79.982	19.992	99.951	19.962	-0.251	-0.016
5.000	112.407	79.985	19.992	99.952	19.963	-0.352	-0.046
5.500	112.453	79.983	19.991	99.953	19.959	-0.051	-0.018
6.000	112.436	79.982	19.992	99.953	19.960	-0.151	0.018
6.500	112.444	79.983	19.992	99.952	19.959	-0.089	0.010
7.000	112.436	79.984	19.992	99.952	19.958	-0.008	-0.005
7.500	112.422	79.983	19.991	99.950	19.960	-0.158	-0.011
8.000	112.427	79.984	19.991	99.950	19.961	-0.185	-0.015
8.500	112.468	79.981	19.991	99.951	19.958	0.009	0.018
9.000	112.461	79.984	19.992	99.951	19.954	0.307	0.040
9.500	112.429	79.983	19.994	99.952	19.955	0.239	-0.002
10.000	112.457	79.984	19.992	99.953	19.960	-0.130	-0.022
10.501	112.423	79.984	19.992	99.953	19.960	-0.109	-0.006
11.001	112.467	79.985	19.992	99.953	19.960	-0.134	0.002
11.500	112.442	79.984	19.992	99.954	19.957	0.100	0.014
12.001	112.430	79.984	19.993	99.954	19.960	-0.104	-0.009
12.501	112.439	79.984	19.993	99.955	19.956	0.170	-0.019
13.001	112.430	79.984	19.991	99.955	19.960	-0.143	-0.001
13.501	112.393	79.985	19.993	99.956	19.957	0.047	-0.023
14.001	112.401	79.984	19.993	99.954	19.952	0.430	-0.038
14.501	112.442	79.984	19.992	99.955	19.955	0.190	0.010
15.001	112.427	79.985	19.992	99.957	19.953	0.392	0.037
15.500	112.392	79.984	19.994	99.963	19.949	0.637	-0.011
16.000	112.394	79.985	19.992	99.968	19.952	0.441	-0.041
16.500	112.418	79.985	19.992	99.976	19.953	0.379	-0.004
17.000	112.375	79.986	19.992	99.982	19.954	0.294	0.003
17.500	112.400	79.986	19.993	99.986	19.951	0.520	-0.018
18.000	112.408	79.984	19.992	99.987	19.954	0.315	0.008
18.500	112.425	79.985	19.992	99.989	19.957	0.100	0.029
19.000	112.415	79.986	19.991	99.988	19.956	0.130	0.015
19.500	112.366	79.986	19.992	99.988	19.950	0.585	-0.026
20.000	112.419	79.985	19.992	99.988	19.955	0.185	-0.027
20.500	112.434	79.986	19.992	99.987	19.949	0.632	0.036
21.000	112.399	79.986	19.993	99.987	19.952	0.422	0.024
21.500	112.401	79.987	19.992	99.988	19.948	0.684	-0.027
22.000	112.438	79.984	19.991	99.992	19.951	0.466	0.002
22.500	112.410	79.987	19.993	99.997	19.951	0.517	0.024
23.000	112.428	79.984	19.992	100.001	19.948	0.709	0.000
23.500	112.460	79.987	19.992	100.007	19.949	0.630	0.020
24.000	112.482	79.985	19.992	100.013	19.953	0.332	0.051
24.500	112.478	79.986	19.993	100.016	19.949	0.634	0.036
25.000	112.459	79.984	19.991	100.018	19.949	0.605	-0.002
25.500	112.476	79.983	19.991	100.022	19.946	0.834	-0.012
26.000	112.472	79.984	19.993	100.022	19.947	0.753	0.005
26.500	112.490	79.984	19.990	100.022	19.948	0.685	0.013
27.000	112.512	79.983	19.992	100.022	19.945	0.930	0.027
27.500	112.546	79.983	19.992	100.024	19.944	0.985	0.048
28.000	112.538	79.984	19.993	100.025	19.949	0.664	0.041
28.500	112.586	79.984	19.994	100.027	19.950	0.560	0.033
29.000	112.610	79.982	19.993	100.031	19.944	0.990	0.056
29.500	112.603	79.982	19.991	100.032	19.947	0.783	0.045
30.000	112.615	79.983	19.993	100.031	19.941	1.168	0.011
30.500	112.618	79.982	19.991	100.029	19.948	0.683	0.010
31.000	112.661	79.982	19.992	100.028	19.944	1.008	0.031
31.500	112.663	79.983	19.992	100.026	19.947	0.804	0.046
32.001	112.706	79.983	19.992	100.026	19.940	1.289	0.045
32.500	112.738	79.982	19.993	100.027	19.947	0.810	0.060
33.000	112.760	79.982	19.993	100.036	19.943	1.038	0.064
33.500	112.787	79.982	19.993	100.043	19.945	0.915	0.051
34.000	112.811	79.981	19.993	100.049	19.947	0.747	0.050
34.500	112.847	79.982	19.993	100.056	19.940	1.244	0.055
35.000	112.881	79.983	19.993	100.061	19.938	1.408	0.065
35.501	112.933	79.980	19.992	100.059	19.942	1.134	0.078
36.001	112.934	79.983	19.994	100.055	19.937	1.476	0.070
36.501	112.979	79.982	19.993	100.056	19.942	1.132	0.049
37.001	112.999	79.981	19.994	100.058	19.936	1.521	0.056
37.501	113.069	79.983	19.994	100.060	19.941	1.193	0.078
38.001	113.083	79.983	19.994	100.062	19.931	1.929	0.087
38.501	113.135	79.982	19.993	100.065	19.937	1.446	0.075
39.001	113.165	79.982	19.993	100.067	19.945	0.910	0.074
39.501	113.235	79.982	19.992	100.074	19.938	1.410	0.092
40.001	113.255	79.983	19.993	100.082	19.935	1.652	0.095
40.500	113.357	79.982	19.993	100.089	19.933	1.784	0.106
41.001	113.387	79.982	19.994	100.096	19.934	1.678	0.127
41.501	113.473	79.983	19.993	100.103	19.936	1.552	0.124
42.000	113.458	79.983	19.994	100.103	19.934	1.671	0.094
42.501	113.523	79.984	19.994	100.106	19.931	1.886	0.060
43.001	113.547	79.984	19.993	100.112	19.932	1.814	0.069
43.501	113.659	79.982	19.994	100.113	19.930	1.953	0.112
44.001	113.711	79.981	19.992	100.113	19.931	1.899	0.150
44.500	113.748	79.983	19.993	100.114	19.932	1.835	0.127
45.000	113.810	79.983	19.994	100.118	19.931	1.899	0.094
45.500	113.909	79.986	19.994	100.117	19.929	2.061	0.130
46.000	113.970	79.985	19.993	100.119	19.931	1.867	0.160
46.501	114.019	79.984	19.993	100.123	19.929	2.052	0.135
47.001	114.077	79.982	19.992	100.128	19.930	1.990	0.109
47.501	114.144	79.986	19.993	100.127	19.922	2.535	0.116
48.001	114.201	79.985	19.994	100.126	19.931	1.905	0.124
48.500	114.304	79.984	19.992	100.126	19.927	2.165	0.142
49.000	114.363	79.984	19.993	100.130	19.925	2.352	0.161
49.500	114.425	79.984	19.993	100.132	19.926	2.222	0.142
50.000	114.535	79.983	19.991	100.133	19.926	2.260	0.147
50.500	114.593	79.984	19.992	100.137	19.923	2.488	0.170
51.000	114.665	79.983	19.991	100.142	19.925	2.335	0.149
51.500	114.738	79.983	19.993	100.143	19.926	2.224	0.138
52.001	114.814	79.983	19.991	100.144	19.921	2.571	0.147
52.501	114.926	79.983	19.992	100.141	19.922	2.533	0.169
53.000	115.005	79.982	19.991	100.136	19.924	2.364	0.190
53.500	115.111	79.983	19.991	100.129	19.926	2.252	0.188
54.000	115.178	79.981	19.990	100.124	19.924	2.386	0.179
54.500	115.238	79.983	19.992	100.120	19.925	2.356	0.150
55.001	115.355	79.982	19.991	100.122	19.920	2.669	0.153
55.501	115.400	79.983	19.992	100.124	19.924	2.367	0.170
56.001	115.555	79.983	19.992	100.132	19.924	2.418	0.181
56.501	115.622	79.983	19.993	100.136	19.923	2.437	0.211
57.000	115.716	79.984	19.992	100.140	19.923	2.454	0.191
57.500	115.809	79.983	19.990	100.143	19.923	2.492	0.174
58.000	115.892	79.982	19.992	100.146	19.919	2.756	0.182
58.501	116.031	79.983	19.992	100.147	19.924	2.388	0.199
59.001	116.114	79.982	19.992	100.148	19.921	2.628	0.222
59.501	116.229	79.982	19.991	100.146	19.922	2.499	0.210
60.001	116.312	79.983	19.992	100.143	19.924	2.401	0.198
60.501	116.422	79.982	19.992	100.144	19.923	2.452	0.196
61.000	116.544	79.981	19.991	100.143	19.922	2.528	0.213
61.500	116.656	79.982	19.990	100.142	19.925	2.328	0.233
62.000	116.746	79.982	19.991	100.144	19.922	2.528	0.218
62.500	116.838	79.982	19.993	100.148	19.920	2.696	0.192
63.000	116.950	79.980	19.991	100.147	19.921	2.615	0.193
63.501	117.046	79.981	19.991	100.147	19.921	2.605	0.206
64.001	117.180	79.982	19.992	100.147	19.915	2.996	0.219
64.500	117.277	79.981	19.992	100.147	19.918	2.820	0.230
65.000	117.394	79.984	19.992	100.147	19.923	2.449	0.223
65.500	117.569	79.981	19.992	100.147	19.918	2.841	0.253
66.001	117.626	79.983	19.993	100.148	19.920	2.675	0.262
66.501	117.740	79.981	19.992	100.148	19.924	2.364	0.201
67.000	117.864	79.982	19.992	100.149	19.919	2.709	0.204
67.501	118.006	79.983	19.993	100.149	19.919	2.717	0.252
68.001	118.134	79.981	19.990	100.149	19.922	2.566	0.268
68.500	118.267	79.982	19.991	100.149	19.919	2.775	0.265
69.000	118.368	79.982	19.991	100.147	19.922	2.533	0.248
69.500	118.530	79.983	19.991	100.147	19.919	2.722	0.249
70.001	118.645	79.984	19.991	100.146	19.919	2.730	0.270
70.501	118.698	79.982	19.991	100.144	19.924	2.403	0.223
71.000	118.863	79.983	19.992	100.140	19.919	2.763	0.193
71.500	118.994	79.984	19.992	100.140	19.925	2.341	0.257
72.000	119.118	79.982	19.991	100.140	19.921	2.603	0.275
72.500	119.220	79.982	19.989	100.141	19.919	2.733	0.241
73.000	119.361	79.984	19.993	100.141	19.919	2.724	0.235
73.500	119.475	79.984	19.991	100.146	19.917	2.862	0.249
74.000	119.639	79.983	19.992	100.148	19.924	2.407	0.267
74.500	119.785	79.983	19.992	100.148	19.923	2.492	0.294
75.001	119.878	79.984	19.993	100.149	19.917	2.875	0.274
75.501	120.010	79.983	19.991	100.150	19.918	2.843	0.232
76.000	120.169	79.984	19.992	100.149	19.919	2.749	0.259
76.500	120.276	79.986	19.991	100.149	19.919	2.728	0.279
77.000	120.417	79.985	19.991	100.149	19.921	2.633	0.256
77.500	120.537	79.983	19.991	100.148	19.921	2.567	0.254
78.000	120.687	79.984	19.992	100.147	19.924	2.397	0.265
78.500	120.825	79.985	19.991	100.147	19.918	2.799	0.279
79.000	120.985	79.984	19.991	100.146	19.919	2.711	0.293
79.500	121.135	79.984	19.991	100.146	19.919	2.764	0.305
80.000	121.291	79.984	19.992	100.146	19.918	2.837	0.308
80.500	121.398	79.984	19.991	100.146	19.921	2.630	0.284
81.000	121.526	79.983	19.991	100.144	19.919	2.735	0.249
81.500	121.701	79.984	19.992	100.141	19.918	2.790	0.269
82.001	121.809	79.985	19.992	100.137	19.917	2.888	0.293
82.501	121.983	79.983	19.991	100.134	19.922	2.520	0.283
83.000	122.123	79.985	19.993	100.132	19.916	2.930	0.298
83.500	122.261	79.984	19.991	100.133	19.922	2.520	0.296
84.001	122.419	79.985	19.992	100.134	19.921	2.587	0.288
84.501	122.550	79.984	19.991	100.139	19.916	2.949	0.293
85.000	122.705	79.984	19.991	100.142	19.926	2.256	0.287
85.500	122.889	79.984	19.991	100.143	19.918	2.830	0.313
86.000	122.978	79.985	19.991	100.143	19.918	2.800	0.306
86.500	123.096	79.985	19.992	100.142	19.923	2.458	0.240
87.000	123.273	79.984	19.992	100.142	19.926	2.273	0.251
87.500	123.414	79.984	19.991	100.143	19.919	2.757	0.307
88.000	123.568	79.984	19.992	100.142	19.928	2.124	0.306
88.500	123.723	79.984	19.990	100.142	19.925	2.334	0.302
89.000	123.891	79.984	19.990	100.143	19.922	2.566	0.316
89.500	124.019	79.985	19.992	100.143	19.920	2.702	0.310
90.000	124.144	79.985	19.992	100.142	19.915	3.016	0.275
90.500	124.312	79.985	19.992	100.143	19.919	2.748	0.273
91.000	124.479	79.984	19.991	100.143	19.914	3.076	0.314
91.500	124.625	79.984	19.991	100.142	19.916	2.978	0.323
92.000	124.764	79.986	19.992	100.143	19.919	2.715	0.299
92.500	124.938	79.984	19.990	100.144	19.920	2.702	0.299
93.000	125.090	79.985	19.992	100.147	19.917	2.865	0.319
93.500	125.239	79.985	19.991	100.148	19.920	2.689	0.313
94.000	125.406	79.982	19.990	100.149	19.920	2.642	0.308
94.500	125.572	79.984	19.991	100.151	19.919	2.761	0.325
95.000	125.714	79.985	19.990	100.157	19.921	2.632	0.321
95.500	125.865	79.985	19.992	100.158	19.916	2.952	0.301
96.000	126.024	79.985	19.991	100.158	19.914	3.067	0.302
96.500	126.166	79.986	19.992	100.160	19.914	3.125	0.305
97.000	126.347	79.987	19.991	100.161	19.918	2.814	0.312
97.500	126.481	79.986	19.992	100.158	19.917	2.899	0.319
98.000	126.642	79.986	19.991	100.158	19.917	2.867	0.305
98.501	126.807	79.986	19.991	100.163	19.915	2.995	0.311
99.001	126.987	79.988	19.996	100.163	19.915	3.031	0.335
99.500	127.130	79.986	19.993	100.164	19.922	2.561	0.334
100.000	127.324	79.986	19.993	100.168	19.913	3.141	0.330
100.501	127.474	79.986	19.993	100.170	19.913	3.182	0.341
101.001	127.706	79.987	19.993	100.170	19.918	2.848	0.363
101.500	127.838	79.985	19.992	100.175	19.917	2.855	0.373
102.000	128.039	79.985	19.992	100.172	19.917	2.887	0.348
102.500	128.226	79.985	19.994	100.171	19.912	3.221	0.360
103.001	128.386	79.985	19.993	100.172	19.917	2.878	0.367
103.501	128.573	79.984	19.992	100.173	19.915	3.016	0.347
104.000	128.700	79.986	19.993	100.175	19.911	3.305	0.330
104.500	128.871	79.986	19.993	100.179	19.907	3.594	0.306
105.000	129.066	79.984	19.992	100.181	19.911	3.305	0.332
105.500	129.224	79.984	19.993	100.178	19.910	3.356	0.359
106.000	129.433	79.984	19.994	100.178	19.910	3.375	0.360
106.500	129.587	79.983	19.992	100.178	19.904	3.788	0.365
107.000	129.729	79.984	19.992	100.178	19.914	3.127	0.329
107.500	129.916	79.985	19.994	100.178	19.908	3.515	0.312
108.000	130.101	79.984	19.993	100.181	19.907	3.581	0.351
108.500	130.326	79.983	19.992	100.181	19.908	3.486	0.391
109.000	130.482	79.983	19.993	100.182	19.912	3.222	0.395
109.500	130.677	79.983	19.993	100.183	19.913	3.197	0.366
110.000	130.838	79.982	19.993	100.183	19.909	3.469	0.353
110.500	131.032	79.983	19.992	100.183	19.915	3.029	0.356
111.000	131.220	79.983	19.993	100.182	19.909	3.456	0.369
111.500	131.409	79.984	19.993	100.183	19.911	3.282	0.380
112.000	131.550	79.983	19.994	100.183	19.910	3.339	0.354
112.500	131.757	79.982	19.994	100.182	19.914	3.112	0.339
113.000	131.963	79.984	19.993	100.177	19.915	3.022	0.380
113.500	132.135	79.983	19.994	100.175	19.911	3.324	0.395
114.000	132.329	79.984	19.992	100.175	19.906	3.633	0.372
114.500	132.520	79.981	19.992	100.175	19.914	3.127	0.376
115.001	132.678	79.985	19.993	100.177	19.916	2.978	0.368
115.501	132.902	79.984	19.993	100.182	19.912	3.244	0.365
116.000	133.058	79.984	19.993	100.185	19.911	3.318	0.381
116.500	133.275	79.981	19.992	100.186	19.907	3.609	0.377
117.000	133.467	79.983	19.994	100.186	19.909	3.458	0.391
117.500	133.658	79.982	19.994	100.184	19.910	3.354	0.396
118.000	133.831	79.983	19.993	100.185	19.904	3.785	0.374
118.500	134.019	79.983	19.992	100.184	19.908	3.517	0.363
119.000	134.240	79.982	19.992	100.183	19.915	3.037	0.385
119.500	134.413	79.982	19.993	100.183	19.911	3.297	0.402
120.001	134.609	79.982	19.993	100.185	19.912	3.205	0.382
120.501	134.830	79.982	19.992	100.185	19.906	3.656	0.394
121.000	134.999	79.981	19.992	100.185	19.907	3.586	0.403
121.500	135.214	79.982	19.991	100.186	19.909	3.473	0.387
122.000	135.413	79.985	19.992	100.187	19.908	3.480	0.399
122.500	135.603	79.982	19.993	100.187	19.907	3.579	0.402
123.001	135.790	79.982	19.993	100.187	19.911	3.314	0.383
123.501	136.013	79.982	19.992	100.187	19.908	3.503	0.393
124.000	136.197	79.982	19.993	100.186	19.907	3.609	0.408
124.500	136.393	79.984	19.995	100.185	19.910	3.377	0.394
125.000	136.610	79.981	19.992	100.182	19.915	2.997	0.397
125.500	136.845	79.983	19.993	100.182	19.909	3.420	0.433
126.000	137.021	79.982	19.993	100.182	19.907	3.586	0.431
126.501	137.269	79.984	19.993	100.182	19.908	3.543	0.417
127.001	137.441	79.983	19.993	100.183	19.907	3.581	0.422
127.500	137.616	79.984	19.994	100.186	19.911	3.331	0.384
128.000	137.842	79.983	19.994	100.187	19.910	3.363	0.374
128.500	138.081	79.983	19.993	100.187	19.911	3.324	0.433
129.000	138.296	79.982	19.994	100.187	19.906	3.656	0.460
129.500	138.440	79.983	19.993	100.187	19.911	3.301	0.406
130.000	138.684	79.982	19.994	100.187	19.907	3.558	0.373
130.500	138.852	79.982	19.993	100.185	19.906	3.677	0.400
131.000	139.068	79.982	19.992	100.183	19.908	3.539	0.398
131.500	139.279	79.983	19.994	100.182	19.905	3.749	0.406
132.000	139.477	79.981	19.995	100.182	19.904	3.783	0.419
132.500	139.712	79.982	19.994	100.182	19.912	3.245	0.421
133.000	139.950	79.983	19.993	100.182	19.905	3.717	0.453
133.500	140.143	79.983	19.994	100.184	19.904	3.781	0.452
134.000	140.360	79.982	19.994	100.187	19.906	3.628	0.420
134.500	140.563	79.983	19.992	100.187	19.907	3.617	0.415
135.000	140.803	79.982	19.993	100.187	19.906	3.624	0.432
135.500	140.988	79.982	19.992	100.188	19.905	3.754	0.434
136.000	141.208	79.983	19.993	100.188	19.911	3.311	0.415
136.500	141.378	79.981	19.992	100.188	19.901	4.022	0.398
137.000	141.589	79.982	19.991	100.187	19.908	3.526	0.386
137.500	141.826	79.982	19.992	100.187	19.913	3.180	0.415
138.000	142.062	79.981	19.992	100.187	19.912	3.239	0.461
138.500	142.259	79.982	19.992	100.186	19.910	3.399	0.453
139.000	142.479	79.982	19.993	100.186	19.898	4.206	0.425
139.500	142.716	79.982	19.993	100.187	19.901	4.000	0.437
140.000	142.945	79.980	19.992	100.187	19.904	3.798	0.462
140.500	143.192	79.982	19.991	100.186	19.909	3.479	0.471
141.000	143.384	79.982	19.991	100.186	19.900	4.074	0.457
141.500	143.577	79.983	19.992	100.186	19.909	3.416	0.412
142.000	143.832	79.983	19.993	100.186	19.904	3.819	0.416
142.500	144.034	79.983	19.992	100.186	19.910	3.352	0.452
143.000	144.288	79.983	19.991	100.187	19.904	3.766	0.457
143.500	144.459	79.983	19.991	100.187	19.908	3.528	0.441
144.000	144.679	79.985	19.993	100.188	19.909	3.462	0.408
144.500	144.903	79.982	19.991	100.189	19.909	3.446	0.418
145.000	145.148	79.984	19.993	100.189	19.906	3.675	0.457
145.500	145.355	79.983	19.991	100.189	19.903	3.875	0.461
146.000	145.554	79.984	19.991	100.188	19.907	3.567	0.429
146.500	145.781	79.984	19.993	100.188	19.905	3.709	0.416
147.000	146.027	79.984	19.992	100.186	19.907	3.579	0.449
147.500	146.246	79.983	19.992	100.180	19.903	3.890	0.469
148.000	146.497	79.982	19.993	100.178	19.906	3.671	0.467
148.500	146.732	79.986	19.993	100.178	19.904	3.798	0.478
149.001	146.921	79.983	19.992	100.178	19.899	4.155	0.455
149.501	147.149	79.982	19.993	100.177	19.900	4.075	0.421
150.001	147.372	79.985	19.993	100.183	19.906	3.635	0.434
150.501	147.548	79.983	19.992	100.184	19.907	3.601	0.425
151.001	147.832	79.984	19.992	100.185	19.905	3.696	0.430
151.500	148.066	79.984	19.993	100.185	19.906	3.635	0.489
152.000	148.272	79.985	19.992	100.186	19.901	4.003	0.479
152.500	148.526	79.984	19.992	100.187	19.903	3.869	0.450
153.000	148.742	79.984	19.991	100.186	19.908	3.497	0.465
153.500	149.026	79.984	19.991	100.186	19.904	3.771	0.485
154.000	149.258	79.983	19.992	100.185	19.903	3.862	0.508
154.500	149.456	79.984	19.991	100.184	19.909	3.471	0.473
155.000	149.700	79.984	19.992	100.183	19.903	3.851	0.436
155.500	149.906	79.984	19.992	100.183	19.903	3.887	0.446
156.000	150.128	79.985	19.992	100.183	19.900	4.043	0.439
156.500	150.376	79.985	19.992	100.183	19.900	4.055	0.449
157.000	150.597	79.984	19.992	100.183	19.904	3.768	0.469
157.500	150.838	79.983	19.992	100.183	19.908	3.514	0.465
158.000	151.049	79.985	19.993	100.181	19.911	3.320	0.457
158.500	151.315	79.986	19.992	100.181	19.901	4.015	0.465
159.000	151.522	79.985	19.991	100.182	19.905	3.711	0.475
159.500	151.751	79.985	19.992	100.181	19.903	3.888	0.454
160.000	151.966	79.984	19.992	100.179	19.897	4.276	0.440
160.500	152.241	79.983	19.991	100.181	19.907	3.584	0.467
161.000	152.427	79.985	19.992	100.179	19.904	3.769	0.476
161.500	152.639	79.985	19.993	100.178	19.907	3.607	0.429
162.000	152.913	79.985	19.993	100.178	19.908	3.503	0.442
162.500	153.134	79.985	19.992	100.180	19.905	3.743	0.491
163.000	153.364	79.985	19.991	100.181	19.908	3.490	0.473
163.500	153.581	79.984	19.991	100.181	19.908	3.545	0.449
164.000	153.880	79.986	19.993	100.181	19.905	3.690	0.482
164.500	154.067	79.985	19.992	100.182	19.906	3.624	0.501
165.000	154.289	79.983	19.992	100.182	19.904	3.800	0.448
165.500	154.559	79.984	19.992	100.182	19.906	3.633	0.450
166.000	154.810	79.983	19.991	100.183	19.906	3.686	0.506
166.500	154.997	79.984	19.991	100.184	19.902	3.968	0.479
167.000	155.277	79.983	19.992	100.184	19.899	4.138	0.452
167.500	155.509	79.985	19.992	100.183	19.903	3.843	0.490
168.000	155.723	79.985	19.993	100.184	19.903	3.885	0.479
168.500	155.988	79.984	19.994	100.183	19.901	3.998	0.462
169.000	156.191	79.984	19.991	100.183	19.902	3.930	0.473
169.500	156.420	79.984	19.991	100.184	19.907	3.609	0.450
170.000	156.684	79.985	19.993	100.184	19.904	3.826	0.462
170.500	156.912	79.984	19.992	100.184	19.903	3.892	0.493
171.000	157.188	79.984	19.991	100.184	19.906	3.629	0.498
171.500	157.427	79.984	19.991	100.184	19.902	3.960	0.509
172.000	157.657	79.986	19.992	100.184	19.904	3.760	0.492
172.500	157.886	79.985	19.992	100.184	19.902	3.941	0.464
