Sample ID:	C:\MCC\MCC Cal\Test\Masonite_Board_30K_min_211022_R2.txt
Sample Weight (mg):	4.83
Heating Rate (C/s):	0.5
Combustor Temp (C):	900
N2 Flow Rate (cc/min):	80
O2 Flow Rate (cc/min):	20
Calibration File:	C:\MCC\MCC Cal\Coeff1 JN10440_30_210304.txt.txt
T Correction Coefficients:	0	1.024463	0
Time Shift (s):	14
*
Time (s)	Temperature (C)	N2 flow rate (cc/min)	O2 flow rate (cc/min)	Flow Rate (cc/min)	Oxygen (%)	HRR (W/g)	Heating rate (C/s)
-0.001	108.339	80.004	19.995	103.033	20.131	-0.067	-0.008
0.499	108.330	80.009	19.995	103.035	20.130	0.002	0.017
1.000	108.285	80.006	19.994	103.036	20.127	0.226	-0.016
1.500	108.308	80.003	19.996	103.040	20.130	-0.013	-0.038
2.000	108.314	80.005	19.994	103.039	20.130	-0.007	0.004
2.500	108.293	80.000	19.997	103.041	20.130	-0.024	0.007
3.000	108.328	79.995	19.994	103.038	20.129	0.082	-0.000
3.500	108.303	79.999	19.997	103.038	20.130	0.000	0.012
4.000	108.295	80.011	19.996	103.036	20.133	-0.168	-0.011
4.500	108.264	79.999	19.995	103.038	20.129	0.077	-0.036
5.000	108.311	79.998	19.997	103.037	20.129	0.038	-0.011
5.500	108.269	79.995	19.996	103.038	20.129	0.100	0.011
6.000	108.259	79.996	19.996	103.035	20.130	-0.020	-0.024
6.500	108.286	79.994	19.996	103.038	20.133	-0.211	-0.018
7.000	108.295	80.007	19.995	103.038	20.130	-0.013	0.026
7.500	108.286	79.999	19.996	103.041	20.130	0.036	0.018
8.000	108.227	79.991	19.996	103.041	20.128	0.120	-0.034
8.500	108.295	80.016	19.993	103.040	20.132	-0.118	-0.029
9.000	108.243	79.998	19.995	103.043	20.128	0.164	0.013
9.500	108.287	79.995	19.996	103.045	20.129	0.087	0.004
10.000	108.302	79.997	19.994	103.042	20.126	0.239	0.026
10.500	108.264	79.998	19.996	103.044	20.128	0.122	0.018
11.000	108.250	79.990	19.997	103.048	20.132	-0.160	-0.038
11.501	108.319	80.002	19.996	103.040	20.127	0.184	0.001
12.000	108.288	79.992	19.996	103.037	20.129	0.055	0.046
12.500	108.247	79.997	19.997	103.041	20.133	-0.166	-0.017
13.000	108.234	79.981	19.997	103.037	20.128	0.109	-0.063
13.500	108.293	80.030	19.993	103.031	20.130	-0.009	-0.004
14.000	108.236	79.992	19.996	103.039	20.130	-0.027	0.024
14.500	108.277	80.003	19.996	103.037	20.124	0.379	-0.007
15.000	108.280	80.002	19.996	103.034	20.127	0.220	0.014
15.500	108.266	79.993	19.997	103.037	20.126	0.262	0.017
16.000	108.257	80.003	19.995	103.041	20.127	0.180	-0.017
16.500	108.227	80.006	19.994	103.034	20.128	0.120	-0.032
17.000	108.237	79.998	19.997	103.037	20.129	0.066	-0.029
17.500	108.230	80.001	19.995	103.037	20.128	0.139	-0.008
18.000	108.270	79.999	19.996	103.036	20.130	0.033	0.018
18.500	108.284	79.994	19.995	103.035	20.128	0.115	0.043
19.000	108.263	80.003	19.995	103.040	20.128	0.131	0.024
19.500	108.222	79.998	19.995	103.040	20.129	0.044	-0.034
20.000	108.251	79.992	19.996	103.040	20.131	-0.078	-0.037
20.500	108.282	80.003	19.993	103.039	20.131	-0.042	0.025
21.000	108.250	79.998	19.995	103.042	20.130	0.007	0.030
21.500	108.243	79.991	19.998	103.039	20.130	0.022	-0.021
22.000	108.264	79.994	19.993	103.034	20.131	-0.095	-0.013
22.500	108.283	80.002	19.993	103.036	20.132	-0.148	0.027
23.000	108.251	79.985	19.996	103.038	20.133	-0.226	0.014
23.500	108.242	80.005	19.993	103.038	20.135	-0.314	-0.027
24.000	108.407	80.000	19.994	103.036	20.128	0.170	0.058
24.500	108.283	79.993	19.995	103.039	20.134	-0.275	0.099
25.000	108.253	79.997	19.996	103.038	20.128	0.139	-0.056
25.500	108.286	79.993	19.995	103.034	20.130	0.020	-0.075
26.000	108.298	79.998	19.993	103.035	20.128	0.126	0.024
26.500	108.253	80.004	19.994	103.042	20.127	0.208	0.006
27.000	108.340	80.005	19.995	103.050	20.127	0.173	0.004
27.500	108.294	80.010	19.994	103.053	20.129	0.077	0.042
28.000	108.273	79.995	19.996	103.063	20.129	0.062	-0.013
28.500	108.288	80.005	19.993	103.064	20.126	0.241	-0.037
29.000	108.257	80.001	19.997	103.064	20.128	0.150	-0.012
29.500	108.285	79.986	19.997	103.062	20.128	0.137	-0.010
30.000	108.326	80.007	19.993	103.063	20.127	0.228	0.033
30.500	108.278	80.007	19.995	103.067	20.128	0.122	0.031
31.000	108.300	80.007	19.995	103.073	20.123	0.450	-0.017
31.500	108.315	80.002	19.996	103.075	20.125	0.354	0.005
32.000	108.289	79.996	19.996	103.080	20.128	0.159	0.013
32.500	108.342	79.991	19.997	103.089	20.126	0.263	0.008
32.999	108.346	80.003	19.995	103.089	20.122	0.531	0.042
33.499	108.332	80.013	19.993	103.095	20.122	0.556	0.023
33.999	108.361	80.016	19.993	103.097	20.125	0.359	0.002
34.499	108.347	80.008	19.993	103.101	20.120	0.657	0.015
34.999	108.392	80.000	19.996	103.100	20.122	0.538	0.023
35.499	108.409	79.995	19.995	103.103	20.123	0.489	0.046
35.999	108.426	80.012	19.994	103.106	20.119	0.713	0.048
36.499	108.464	80.006	19.994	103.112	20.119	0.765	0.045
36.999	108.416	80.010	19.995	103.113	20.118	0.816	0.023
37.499	108.492	80.005	19.998	103.114	20.117	0.839	0.009
37.999	108.453	79.985	19.998	103.111	20.116	0.956	0.032
38.499	108.520	80.007	19.996	103.108	20.116	0.949	0.032
38.999	108.513	79.991	19.995	103.109	20.112	1.173	0.044
39.499	108.516	79.995	19.996	103.107	20.114	1.080	0.028
39.999	108.558	79.991	19.995	103.107	20.117	0.881	0.021
40.499	108.548	79.994	19.995	103.112	20.115	0.971	0.039
40.999	108.572	79.994	19.995	103.116	20.111	1.265	0.023
41.499	108.613	79.993	19.996	103.116	20.111	1.239	0.039
41.999	108.670	80.012	19.993	103.125	20.115	1.016	0.081
42.499	108.677	79.990	19.996	103.135	20.111	1.294	0.081
43.000	108.652	79.998	19.996	103.140	20.108	1.498	0.023
43.500	108.708	80.005	19.995	103.143	20.108	1.491	0.007
43.999	108.756	80.002	19.994	103.149	20.108	1.478	0.068
44.499	108.786	80.020	19.992	103.153	20.109	1.434	0.091
44.999	108.793	80.009	19.995	103.157	20.109	1.411	0.057
45.499	108.860	80.016	19.993	103.163	20.107	1.526	0.055
45.999	108.874	80.010	19.995	103.173	20.110	1.308	0.077
46.499	108.909	79.991	19.997	103.174	20.106	1.602	0.065
46.999	108.971	80.002	19.996	103.171	20.107	1.568	0.073
47.499	108.990	79.990	19.995	103.171	20.106	1.617	0.088
47.999	109.024	80.012	19.994	103.175	20.106	1.573	0.067
48.499	109.065	80.007	19.994	103.174	20.107	1.522	0.064
48.999	109.122	80.008	19.992	103.179	20.107	1.537	0.087
49.499	109.195	80.007	19.994	103.187	20.109	1.416	0.114
49.999	109.220	79.992	19.995	103.191	20.108	1.491	0.114
50.499	109.269	80.001	19.995	103.192	20.102	1.838	0.086
50.999	109.290	80.002	19.996	103.191	20.103	1.820	0.072
51.499	109.370	80.000	19.996	103.189	20.105	1.703	0.085
52.000	109.385	79.999	19.995	103.184	20.102	1.858	0.098
52.500	109.446	80.018	19.993	103.181	20.100	2.030	0.086
52.999	109.499	79.985	19.996	103.187	20.102	1.899	0.095
53.499	109.580	80.005	19.993	103.184	20.100	1.994	0.124
53.999	109.630	80.004	19.996	103.190	20.100	1.977	0.133
54.499	109.710	80.001	19.995	103.191	20.099	2.098	0.131
55.000	109.765	79.981	19.996	103.190	20.102	1.884	0.132
55.500	109.819	80.001	19.995	103.186	20.103	1.813	0.122
55.999	109.907	80.000	19.995	103.191	20.100	2.017	0.126
56.499	109.948	79.984	19.997	103.187	20.100	1.999	0.135
56.999	110.006	79.994	19.995	103.185	20.099	2.052	0.114
57.499	110.063	80.008	19.993	103.186	20.103	1.809	0.107
57.999	110.161	79.994	19.995	103.187	20.101	1.937	0.135
58.499	110.230	79.987	19.996	103.184	20.101	1.917	0.161
58.999	110.285	79.994	19.995	103.180	20.097	2.213	0.145
59.499	110.350	80.011	19.995	103.184	20.099	2.080	0.122
59.999	110.467	80.003	19.996	103.186	20.099	2.096	0.151
60.499	110.530	79.999	19.995	103.186	20.099	2.100	0.181
60.999	110.612	80.001	19.995	103.189	20.098	2.153	0.162
61.499	110.684	80.002	19.995	103.197	20.095	2.311	0.149
61.999	110.753	79.995	19.995	103.202	20.093	2.450	0.147
62.499	110.864	80.004	19.995	103.207	20.099	2.072	0.160
62.999	110.930	80.005	19.993	103.214	20.098	2.138	0.179
63.499	111.018	80.012	19.995	103.221	20.095	2.348	0.166
63.999	111.072	79.999	19.994	103.223	20.097	2.224	0.148
64.499	111.153	79.990	19.997	103.227	20.095	2.308	0.139
64.999	111.271	80.003	19.995	103.227	20.095	2.323	0.167
65.499	111.355	80.005	19.994	103.227	20.097	2.219	0.201
65.999	111.454	79.994	19.994	103.223	20.092	2.531	0.192
66.499	111.502	79.982	19.996	103.223	20.093	2.491	0.164
66.999	111.604	80.003	19.995	103.223	20.094	2.383	0.148
67.499	111.697	79.995	19.996	103.225	20.093	2.491	0.173
67.999	111.814	80.011	19.993	103.226	20.092	2.548	0.203
68.499	111.884	80.001	19.995	103.232	20.094	2.416	0.199
68.999	112.028	79.992	19.995	103.231	20.090	2.673	0.200
69.499	112.053	79.997	19.995	103.231	20.091	2.630	0.191
69.999	112.199	79.989	19.997	103.229	20.092	2.544	0.170
70.499	112.286	80.005	19.994	103.231	20.088	2.791	0.202
70.999	112.420	79.998	19.995	103.229	20.088	2.794	0.227
71.499	112.467	79.998	19.996	103.234	20.088	2.774	0.201
71.999	112.613	80.004	19.995	103.232	20.090	2.688	0.187
72.499	112.695	79.998	19.996	103.235	20.087	2.877	0.210
72.999	112.822	79.996	19.993	103.237	20.087	2.891	0.218
73.499	112.902	79.994	19.997	103.244	20.087	2.884	0.208
73.999	113.059	80.014	19.994	103.243	20.087	2.866	0.222
74.499	113.159	79.990	19.997	103.256	20.087	2.864	0.247
74.999	113.195	79.992	19.998	103.260	20.085	3.026	0.196
75.499	113.383	80.001	19.996	103.255	20.085	2.973	0.180
75.999	113.470	79.994	19.996	103.254	20.086	2.922	0.249
76.499	113.580	79.996	19.996	103.256	20.091	2.625	0.237
76.999	113.716	80.006	19.994	103.252	20.086	2.964	0.222
77.499	113.851	79.997	19.995	103.253	20.088	2.807	0.258
78.000	113.989	79.999	19.995	103.260	20.087	2.867	0.272
78.500	114.072	79.998	19.996	103.259	20.087	2.854	0.247
78.999	114.229	80.001	19.996	103.256	20.088	2.814	0.231
79.499	114.374	80.000	19.995	103.253	20.085	2.984	0.271
79.999	114.538	80.008	19.994	103.252	20.087	2.867	0.305
80.499	114.601	79.992	19.996	103.255	20.087	2.871	0.268
80.999	114.740	80.009	19.993	103.257	20.088	2.789	0.215
81.499	114.886	79.997	19.996	103.264	20.087	2.877	0.243
81.999	114.990	79.996	19.996	103.268	20.087	2.902	0.267
82.499	115.144	79.997	19.996	103.269	20.088	2.818	0.254
82.999	115.249	79.998	19.995	103.267	20.084	3.045	0.259
83.499	115.399	79.999	19.995	103.267	20.085	3.026	0.257
83.999	115.557	80.000	19.994	103.266	20.085	2.994	0.281
84.499	115.660	79.996	19.995	103.267	20.086	2.910	0.284
84.999	115.824	79.995	19.995	103.268	20.081	3.268	0.264
85.500	115.930	79.997	19.995	103.269	20.082	3.191	0.269
86.000	116.148	79.994	19.995	103.269	20.083	3.142	0.297
86.499	116.269	80.000	19.994	103.269	20.081	3.286	0.331
86.999	116.376	79.999	19.995	103.269	20.082	3.194	0.284
87.499	116.550	79.996	19.996	103.269	20.084	3.061	0.255
87.999	116.690	79.997	19.995	103.270	20.084	3.074	0.297
88.499	116.840	79.983	19.998	103.270	20.080	3.366	0.302
88.999	116.969	79.996	19.996	103.264	20.084	3.065	0.285
89.500	117.138	79.992	19.996	103.260	20.086	2.946	0.289
90.000	117.300	79.987	19.996	103.259	20.086	2.942	0.315
90.499	117.451	80.000	19.995	103.256	20.082	3.181	0.322
90.999	117.614	79.999	19.995	103.255	20.081	3.247	0.313
91.499	117.743	79.993	19.997	103.261	20.081	3.240	0.303
91.999	117.904	80.001	19.995	103.263	20.084	3.077	0.291
92.499	118.093	80.003	19.995	103.266	20.079	3.432	0.319
92.999	118.229	80.002	19.995	103.268	20.083	3.151	0.337
93.499	118.408	80.005	19.994	103.269	20.083	3.138	0.321
93.999	118.554	80.016	19.995	103.270	20.081	3.297	0.321
94.500	118.693	79.991	19.995	103.272	20.083	3.111	0.305
95.000	118.875	80.001	19.996	103.272	20.085	3.034	0.303
95.500	119.041	80.006	19.995	103.272	20.083	3.146	0.335
96.000	119.198	80.003	19.995	103.271	20.084	3.098	0.335
96.499	119.326	80.007	19.994	103.271	20.081	3.299	0.304
96.999	119.516	79.990	19.997	103.272	20.081	3.242	0.302
97.499	119.668	80.000	19.995	103.268	20.083	3.136	0.330
97.999	119.830	80.003	19.994	103.271	20.096	2.291	0.328
98.499	120.005	80.014	19.994	103.272	20.096	2.278	0.325
98.999	120.144	79.998	19.995	103.274	20.094	2.415	0.325
99.499	120.302	80.001	19.999	103.270	20.082	3.215	0.306
99.999	120.454	79.983	20.000	103.271	20.080	3.335	0.303
100.499	120.668	80.004	19.996	103.264	20.087	2.880	0.338
100.999	120.803	79.999	19.996	103.263	20.085	3.037	0.358
101.499	121.022	80.000	19.996	103.258	20.080	3.319	0.351
102.000	121.187	80.002	19.994	103.261	20.078	3.467	0.369
102.500	121.381	79.996	19.997	103.262	20.083	3.138	0.372
102.999	121.572	80.003	19.996	103.269	20.075	3.658	0.372
103.499	121.725	80.001	19.996	103.270	20.080	3.368	0.364
103.999	121.904	80.010	19.995	103.271	20.081	3.251	0.337
104.499	122.071	79.995	19.998	103.280	20.083	3.149	0.339
104.999	122.250	79.997	19.996	103.278	20.079	3.388	0.346
105.499	122.441	80.000	19.996	103.277	20.083	3.171	0.358
105.999	122.654	79.999	19.995	103.282	20.078	3.501	0.387
106.499	122.849	79.992	19.996	103.283	20.080	3.335	0.406
106.999	122.998	79.998	19.997	103.276	20.079	3.421	0.376
107.500	123.171	79.999	19.996	103.279	20.079	3.412	0.333
108.000	123.402	79.993	19.997	103.284	20.080	3.348	0.363
108.499	123.509	80.010	19.995	103.279	20.079	3.381	0.371
108.999	123.741	80.009	19.995	103.280	20.082	3.178	0.338
109.499	123.916	79.998	19.996	103.280	20.079	3.375	0.373
109.999	124.104	79.999	19.997	103.279	20.081	3.291	0.385
110.499	124.391	79.995	19.997	103.275	20.080	3.372	0.419
110.999	124.560	80.001	19.997	103.275	20.081	3.291	0.465
111.499	124.679	80.001	19.996	103.273	20.077	3.512	0.372
111.999	124.846	79.998	19.996	103.274	20.077	3.570	0.287
112.499	125.031	80.001	19.995	103.271	20.084	3.083	0.319
112.999	125.216	80.000	19.994	103.271	20.080	3.313	0.361
113.500	125.395	79.998	19.996	103.270	20.082	3.181	0.367
114.000	125.625	79.996	19.995	103.267	20.081	3.287	0.387
114.499	125.815	79.997	19.995	103.264	20.082	3.185	0.415
114.999	126.025	79.993	19.995	103.264	20.083	3.134	0.410
115.499	126.218	80.000	19.994	103.263	20.083	3.143	0.401
115.999	126.511	80.005	19.995	103.264	20.082	3.180	0.444
116.499	126.576	80.000	19.995	103.267	20.084	3.090	0.423
116.999	126.790	79.998	19.995	103.268	20.082	3.174	0.319
117.499	127.009	80.000	19.995	103.268	20.083	3.127	0.355
117.999	127.210	79.999	19.995	103.268	20.083	3.136	0.426
118.499	127.385	80.003	19.996	103.267	20.081	3.267	0.398
118.999	127.615	79.996	19.997	103.265	20.084	3.054	0.391
119.499	127.814	79.997	19.997	103.264	20.082	3.229	0.417
119.999	127.989	80.004	19.995	103.264	20.079	3.379	0.401
120.499	128.211	79.996	19.994	103.266	20.084	3.045	0.386
120.999	128.434	80.000	19.994	103.267	20.081	3.275	0.422
121.499	128.626	80.003	19.995	103.268	20.085	3.030	0.430
121.999	128.812	79.999	19.996	103.268	20.086	2.962	0.396
122.499	128.979	80.002	19.995	103.269	20.089	2.758	0.366
123.000	129.221	80.000	19.994	103.265	20.084	3.063	0.381
123.500	129.441	80.000	19.995	103.264	20.090	2.641	0.435
123.999	129.623	80.004	19.994	103.264	20.096	2.303	0.432
124.499	129.832	80.004	19.994	103.264	20.083	3.161	0.397
124.999	130.023	80.003	19.995	103.264	20.085	3.013	0.396
125.499	130.206	80.000	19.994	103.266	20.092	2.557	0.387
125.999	130.417	80.000	19.996	103.266	20.104	1.757	0.384
126.499	130.617	80.010	19.994	103.266	20.090	2.645	0.403
126.999	130.803	80.006	19.994	103.267	20.085	3.001	0.399
127.499	131.018	80.000	19.995	103.267	20.083	3.120	0.394
127.999	131.208	80.004	19.995	103.267	20.081	3.270	0.403
128.500	131.445	80.003	19.995	103.268	20.083	3.136	0.416
129.000	131.624	80.000	19.995	103.269	20.083	3.138	0.421
129.500	131.884	80.003	19.993	103.267	20.099	2.059	0.427
130.000	132.054	80.003	19.995	103.267	20.090	2.681	0.434
130.500	132.269	80.002	19.994	103.269	20.081	3.257	0.408
131.000	132.481	79.999	19.995	103.269	20.091	2.621	0.406
131.500	132.679	80.000	19.995	103.268	20.086	2.935	0.418
132.000	132.911	79.998	19.994	103.269	20.080	3.366	0.420
132.500	133.097	80.000	19.995	103.269	20.078	3.492	0.424
133.000	133.332	79.998	19.994	103.269	20.081	3.262	0.420
133.500	133.513	79.998	19.994	103.268	20.083	3.163	0.419
134.000	133.729	79.999	19.995	103.268	20.079	3.377	0.407
134.500	133.956	79.997	19.995	103.268	20.080	3.370	0.420
135.000	134.155	79.999	19.996	103.267	20.080	3.319	0.435
135.500	134.390	79.988	19.996	103.266	20.082	3.218	0.430
136.000	134.577	80.004	19.994	103.265	20.082	3.220	0.428
136.500	134.763	80.006	19.993	103.267	20.081	3.260	0.398
137.000	134.996	79.986	19.996	103.269	20.083	3.141	0.396
137.500	135.228	80.004	19.995	103.268	20.081	3.253	0.442
138.000	135.393	79.995	19.995	103.272	20.081	3.298	0.431
138.500	135.626	79.993	19.996	103.275	20.081	3.293	0.398
139.000	135.836	80.000	19.994	103.276	20.085	3.012	0.421
139.500	136.060	80.003	19.994	103.277	20.084	3.101	0.439
140.000	136.277	80.005	19.995	103.280	20.081	3.251	0.438
140.500	136.483	79.996	19.996	103.278	20.082	3.191	0.432
141.000	136.715	79.998	19.994	103.275	20.081	3.267	0.430
141.500	136.945	80.000	19.995	103.273	20.081	3.306	0.450
142.000	137.153	80.002	19.994	103.270	20.080	3.318	0.450
142.500	137.457	80.001	19.994	103.270	20.079	3.380	0.475
143.000	137.558	79.997	19.995	103.271	20.080	3.370	0.459
143.500	137.799	79.999	19.995	103.270	20.082	3.236	0.374
144.000	137.992	80.000	19.995	103.270	20.081	3.260	0.388
144.500	138.217	79.999	19.995	103.270	20.088	2.835	0.425
145.000	138.429	80.000	19.995	103.270	20.099	2.071	0.428
145.500	138.641	79.998	19.995	103.272	20.084	3.092	0.431
146.000	138.890	80.001	19.994	103.274	20.082	3.185	0.443
146.500	139.055	79.998	19.995	103.274	20.084	3.068	0.437
147.000	139.324	79.998	19.996	103.274	20.082	3.201	0.424
147.500	139.532	80.001	19.995	103.274	20.084	3.063	0.455
148.000	139.784	79.999	19.994	103.269	20.093	2.486	0.468
148.500	140.012	79.996	19.995	103.269	20.092	2.539	0.470
149.000	140.280	80.002	19.995	103.269	20.090	2.705	0.488
149.500	140.419	79.999	19.995	103.269	20.087	2.869	0.452
150.000	140.648	80.002	19.994	103.269	20.086	2.937	0.388
150.500	140.885	79.994	19.995	103.269	20.084	3.055	0.417
151.000	141.105	79.998	19.996	103.268	20.085	2.995	0.461
151.500	141.305	79.999	19.994	103.265	20.084	3.097	0.438
152.000	141.539	80.002	19.995	103.265	20.087	2.882	0.427
152.500	141.745	80.000	19.995	103.266	20.085	2.999	0.437
153.000	141.973	80.000	19.994	103.263	20.083	3.119	0.437
153.500	142.194	79.999	19.994	103.263	20.083	3.138	0.441
154.000	142.406	79.999	19.995	103.265	20.087	2.886	0.441
154.500	142.635	79.998	19.994	103.264	20.085	2.993	0.437
155.000	142.863	79.999	19.994	103.265	20.085	3.030	0.449
155.500	143.118	80.000	19.994	103.267	20.084	3.057	0.470
156.000	143.341	79.999	19.995	103.266	20.085	2.991	0.480
156.500	143.560	80.001	19.995	103.267	20.083	3.150	0.460
157.000	143.781	79.998	19.995	103.265	20.086	2.935	0.442
157.500	143.991	79.999	19.995	103.262	20.083	3.115	0.435
158.000	144.163	79.999	19.995	103.261	20.084	3.084	0.406
158.500	144.416	79.999	19.996	103.263	20.085	2.973	0.404
159.000	144.635	80.000	19.994	103.262	20.085	3.024	0.448
159.500	144.908	80.000	19.995	103.265	20.086	2.968	0.482
160.000	145.090	80.001	19.996	103.267	20.085	3.024	0.474
160.500	145.320	80.000	19.994	103.267	20.087	2.878	0.433
161.000	145.582	79.999	19.996	103.266	20.085	3.010	0.452
161.500	145.829	80.000	19.994	103.264	20.086	2.929	0.501
162.000	145.988	80.000	19.995	103.261	20.084	3.044	0.457
162.500	146.218	79.999	19.995	103.259	20.086	2.920	0.397
163.000	146.437	80.000	19.996	103.260	20.086	2.958	0.419
163.500	146.683	80.001	19.995	103.261	20.087	2.893	0.457
164.000	146.901	80.000	19.997	103.263	20.091	2.601	0.465
164.500	147.172	79.999	19.995	103.265	20.080	3.311	0.477
165.000	147.384	79.998	19.996	103.267	20.084	3.101	0.486
165.500	147.643	80.000	19.996	103.265	20.082	3.211	0.477
166.000	147.852	79.999	19.997	103.265	20.084	3.081	0.469
166.500	148.054	79.999	19.996	103.263	20.085	3.010	0.439
167.000	148.314	80.000	19.995	103.260	20.087	2.904	0.436
167.500	148.544	79.999	19.997	103.257	20.083	3.137	0.476
168.000	148.748	80.001	19.998	103.256	20.087	2.893	0.462
168.500	148.987	80.000	19.998	103.256	20.083	3.141	0.439
169.000	149.240	80.000	19.997	103.258	20.084	3.054	0.467
169.500	149.430	79.998	19.997	103.263	20.086	2.913	0.467
170.000	149.680	80.000	19.996	103.266	20.087	2.864	0.442
170.500	149.910	80.000	19.997	103.266	20.085	2.990	0.460
171.000	150.123	79.999	19.996	103.265	20.086	2.947	0.461
171.500	150.356	80.001	19.997	103.263	20.087	2.883	0.445
172.000	150.592	79.999	19.996	103.263	20.084	3.048	0.458
