Sample ID:	C:\MCC\MCC Cal\Test\FRP_Panel_MCC_30K_min_211029_R1.txt
Sample Weight (mg):	4.6
Heating Rate (C/s):	0.5
Combustor Temp (C):	900
N2 Flow Rate (cc/min):	80
O2 Flow Rate (cc/min):	20
Calibration File:	C:\MCC\MCC Cal\Coeff1 JN10440_30_210304.txt.txt
T Correction Coefficients:	0	1.024463	0
Time Shift (s):	14
*
Time (s)	Temperature (C)	N2 flow rate (cc/min)	O2 flow rate (cc/min)	Flow Rate (cc/min)	Oxygen (%)	HRR (W/g)	Heating rate (C/s)
0.001	107.706	79.994	19.998	102.914	20.052	0.006	-0.006
0.501	107.719	79.994	19.996	102.918	20.051	0.035	-0.013
1.000	107.712	79.993	19.997	102.915	20.054	-0.127	-0.000
1.500	107.677	79.994	19.997	102.921	20.054	-0.149	-0.019
2.000	107.699	79.992	19.997	102.922	20.053	-0.039	-0.028
2.500	107.678	79.993	19.997	102.922	20.053	-0.076	-0.005
3.000	107.689	79.990	19.996	102.923	20.051	0.082	-0.004
3.500	107.704	79.993	19.997	102.926	20.055	-0.244	0.008
4.000	107.673	79.993	19.997	102.923	20.053	-0.094	0.005
4.502	107.726	79.993	19.996	102.918	20.054	-0.121	0.003
5.001	107.699	79.993	19.996	102.912	20.054	-0.151	0.024
5.500	107.698	79.993	19.995	102.907	20.054	-0.137	-0.001
6.000	107.679	79.994	19.996	102.905	20.053	-0.041	-0.024
6.500	107.672	79.993	19.995	102.902	20.053	-0.094	-0.023
7.000	107.701	79.993	19.996	102.902	20.050	0.147	-0.002
7.500	107.676	79.993	19.996	102.903	20.051	0.055	0.013
8.000	107.700	79.993	19.995	102.909	20.052	0.014	0.002
8.500	107.691	79.993	19.996	102.914	20.049	0.227	0.008
9.000	107.671	79.992	19.996	102.919	20.049	0.194	-0.007
9.500	107.690	79.992	19.996	102.924	20.048	0.266	-0.015
10.001	107.709	79.993	19.996	102.929	20.046	0.442	0.019
10.501	107.691	79.993	19.995	102.929	20.045	0.497	0.019
11.001	107.682	79.993	19.995	102.929	20.047	0.348	-0.014
11.501	107.682	79.990	19.996	102.929	20.045	0.513	-0.018
12.000	107.687	79.991	19.997	102.929	20.047	0.348	-0.002
12.500	107.694	79.992	19.996	102.930	20.046	0.391	0.009
13.000	107.732	79.993	19.998	102.933	20.048	0.305	0.028
13.500	107.702	79.993	19.996	102.937	20.048	0.278	0.027
14.000	107.711	79.992	19.999	102.941	20.048	0.262	-0.006
14.500	107.684	79.991	19.998	102.946	20.049	0.196	-0.020
15.000	107.735	79.992	19.998	102.945	20.046	0.427	0.003
15.500	107.754	79.991	19.997	102.948	20.047	0.362	0.047
16.000	107.746	79.992	19.998	102.949	20.047	0.327	0.041
16.500	107.723	79.990	19.996	102.953	20.043	0.648	-0.010
17.000	107.711	79.992	19.999	102.955	20.042	0.711	-0.033
17.500	107.762	79.991	19.999	102.962	20.041	0.799	0.002
18.000	107.770	79.993	19.998	102.966	20.039	0.938	0.049
18.500	107.777	79.991	19.999	102.974	20.040	0.830	0.037
19.000	107.800	79.992	19.998	102.981	20.039	0.879	0.022
19.500	107.794	79.992	19.996	102.985	20.037	1.028	0.023
20.000	107.816	79.992	19.998	102.990	20.038	1.006	0.016
20.500	107.835	79.993	19.996	102.997	20.037	1.047	0.028
21.000	107.841	79.991	19.997	102.999	20.034	1.230	0.033
21.500	107.845	79.993	19.998	102.999	20.037	1.059	0.018
22.000	107.883	79.991	19.996	103.003	20.033	1.310	0.026
22.500	107.888	79.995	19.997	103.006	20.033	1.339	0.043
23.000	107.878	79.992	19.996	103.012	20.033	1.357	0.019
23.500	107.889	79.994	19.996	103.021	20.031	1.494	-0.002
24.000	107.914	79.993	19.995	103.030	20.030	1.530	0.018
24.500	107.989	79.993	19.997	103.038	20.026	1.837	0.068
25.000	107.944	79.994	19.997	103.050	20.030	1.541	0.065
25.500	108.022	79.994	19.995	103.058	20.027	1.755	0.032
26.000	108.053	79.993	19.995	103.062	20.029	1.616	0.071
26.500	108.085	79.994	19.996	103.061	20.023	2.002	0.086
27.000	108.110	79.993	19.997	103.060	20.024	1.943	0.060
27.500	108.150	79.993	19.996	103.057	20.025	1.890	0.061
28.000	108.240	79.994	19.997	103.052	20.026	1.800	0.097
28.500	108.235	79.994	19.996	103.049	20.027	1.775	0.108
29.000	108.268	79.994	19.997	103.050	20.025	1.875	0.057
29.500	108.336	79.995	19.996	103.050	20.022	2.102	0.065
30.000	108.348	79.995	19.996	103.051	20.026	1.830	0.090
30.500	108.413	79.993	19.996	103.049	20.025	1.887	0.079
31.000	108.421	79.996	19.996	103.048	20.021	2.151	0.075
31.500	108.497	79.995	19.995	103.048	20.023	2.002	0.078
32.000	108.515	79.994	19.996	103.048	20.022	2.069	0.088
32.500	108.559	79.994	19.996	103.047	20.022	2.081	0.078
33.000	108.642	79.994	19.995	103.048	20.022	2.077	0.095
33.500	108.692	79.995	19.994	103.053	20.021	2.148	0.130
34.000	108.739	79.996	19.995	103.061	20.022	2.099	0.115
34.500	108.795	79.994	19.994	103.069	20.023	2.044	0.100
35.000	108.859	79.994	19.996	103.077	20.019	2.299	0.112
35.500	108.908	79.993	19.995	103.084	20.022	2.130	0.117
36.000	108.975	79.995	19.996	103.087	20.020	2.218	0.115
36.500	109.039	79.994	19.996	103.088	20.022	2.118	0.123
37.000	109.105	79.993	19.995	103.088	20.021	2.171	0.131
37.500	109.142	79.995	19.995	103.088	20.022	2.087	0.116
38.000	109.234	79.992	19.996	103.088	20.021	2.169	0.115
38.500	109.284	79.995	19.995	103.088	20.020	2.250	0.136
39.000	109.339	79.995	19.995	103.088	20.016	2.502	0.124
39.500	109.429	79.995	19.995	103.089	20.020	2.232	0.125
40.001	109.502	79.993	19.995	103.090	20.016	2.495	0.154
40.501	109.541	79.994	19.995	103.094	20.016	2.538	0.138
41.000	109.619	79.994	19.994	103.100	20.014	2.664	0.114
41.500	109.713	79.994	19.995	103.108	20.013	2.746	0.144
42.000	109.811	79.995	19.995	103.116	20.016	2.550	0.182
42.500	109.867	79.995	19.995	103.123	20.017	2.472	0.173
43.000	109.968	79.994	19.995	103.128	20.016	2.534	0.155
43.500	110.046	79.995	19.995	103.129	20.014	2.654	0.168
44.000	110.139	79.994	19.994	103.129	20.014	2.680	0.175
44.501	110.223	79.993	19.996	103.129	20.015	2.566	0.174
45.001	110.335	79.993	19.996	103.129	20.014	2.640	0.186
45.501	110.420	79.994	19.995	103.131	20.015	2.582	0.196
46.001	110.511	79.995	19.996	103.135	20.014	2.640	0.187
46.501	110.628	79.994	19.996	103.136	20.016	2.550	0.192
47.000	110.677	79.993	19.996	103.137	20.016	2.509	0.187
47.500	110.777	79.995	19.995	103.139	20.013	2.709	0.158
48.000	110.868	79.992	19.996	103.136	20.012	2.819	0.170
48.500	110.976	79.995	19.996	103.133	20.012	2.764	0.195
49.000	111.082	79.993	19.995	103.134	20.011	2.899	0.206
49.501	111.190	79.994	19.995	103.134	20.012	2.780	0.214
50.001	111.290	79.996	19.996	103.139	20.014	2.632	0.211
50.501	111.424	79.994	19.995	103.144	20.011	2.901	0.221
51.001	111.515	79.995	19.995	103.152	20.008	3.046	0.229
51.501	111.642	79.995	19.995	103.158	20.009	3.019	0.221
52.001	111.768	79.994	19.996	103.163	20.009	3.019	0.235
52.500	111.862	79.995	19.995	103.164	20.010	2.944	0.237
53.000	112.000	79.995	19.996	103.167	20.008	3.056	0.226
53.500	112.100	79.994	19.995	103.167	20.007	3.127	0.235
54.000	112.226	79.994	19.995	103.166	20.009	3.034	0.232
54.500	112.365	79.995	19.996	103.166	20.009	3.019	0.246
55.000	112.465	79.995	19.994	103.166	20.007	3.127	0.252
55.500	112.580	79.995	19.996	103.165	20.008	3.101	0.227
56.000	112.725	79.996	19.999	103.164	20.008	3.087	0.238
56.500	112.792	79.995	19.998	103.165	20.007	3.113	0.236
57.000	112.977	79.993	19.999	103.165	20.008	3.086	0.232
57.500	113.102	79.994	19.999	103.165	20.010	2.914	0.281
58.000	113.236	79.996	19.996	103.166	20.009	3.006	0.284
58.500	113.399	79.994	19.997	103.167	20.008	3.102	0.278
59.000	113.531	79.995	19.996	103.167	20.010	2.914	0.296
59.500	113.673	79.993	19.996	103.167	20.006	3.188	0.285
60.000	113.811	79.994	19.996	103.166	20.006	3.216	0.277
60.500	113.939	79.994	19.996	103.166	20.009	2.996	0.273
61.000	114.108	79.993	19.996	103.165	20.003	3.406	0.281
61.501	114.220	79.994	19.995	103.164	20.008	3.078	0.289
62.001	114.353	79.993	19.996	103.164	20.006	3.223	0.263
62.500	114.511	79.992	19.995	103.166	20.005	3.305	0.268
63.000	114.666	79.995	19.995	103.167	20.006	3.241	0.302
63.501	114.787	79.993	19.995	103.168	20.004	3.380	0.294
64.001	114.980	79.994	19.996	103.168	20.006	3.196	0.295
64.501	115.080	79.994	19.995	103.169	20.009	3.000	0.304
65.001	115.221	79.992	19.996	103.169	20.006	3.221	0.267
65.500	115.376	79.992	19.995	103.168	20.006	3.233	0.268
66.000	115.547	79.991	19.996	103.169	20.005	3.318	0.311
66.500	115.715	79.993	19.996	103.173	20.005	3.290	0.333
67.000	115.843	79.994	19.994	103.174	20.004	3.373	0.318
67.500	116.002	79.994	19.994	103.181	20.003	3.431	0.292
68.000	116.159	79.993	19.996	103.189	20.003	3.431	0.302
68.500	116.355	79.993	19.995	103.195	20.000	3.622	0.334
69.000	116.488	79.992	19.994	103.198	20.001	3.557	0.341
69.500	116.665	79.993	19.998	103.203	20.000	3.661	0.320
70.000	116.828	79.992	19.994	103.203	20.002	3.467	0.325
70.500	116.983	79.992	19.995	103.203	20.003	3.451	0.329
71.000	117.149	79.993	19.995	103.203	20.001	3.598	0.320
71.500	117.389	79.993	19.996	103.197	20.003	3.457	0.363
72.000	117.491	79.990	19.995	103.193	20.001	3.586	0.374
72.500	117.710	79.993	19.995	103.191	20.003	3.408	0.332
73.000	117.850	79.994	19.995	103.189	20.002	3.468	0.340
73.500	118.017	79.992	19.996	103.185	20.003	3.437	0.333
74.000	118.205	79.992	19.996	103.188	20.003	3.396	0.331
74.500	118.393	79.993	19.995	103.189	20.002	3.490	0.365
75.000	118.546	79.993	19.996	103.187	20.002	3.482	0.359
75.501	118.715	79.994	19.995	103.188	20.004	3.368	0.332
76.001	118.933	79.993	19.995	103.193	20.006	3.221	0.354
76.500	119.080	79.992	19.996	103.195	20.003	3.423	0.376
77.000	119.299	79.993	19.995	103.198	20.002	3.496	0.366
77.500	119.448	79.992	19.998	103.200	20.003	3.439	0.367
78.000	119.654	79.992	19.997	103.199	20.004	3.390	0.361
78.500	119.835	79.994	19.998	103.199	19.999	3.674	0.371
79.000	120.011	79.991	19.998	103.199	20.001	3.586	0.372
79.500	120.226	79.993	19.998	103.199	20.003	3.420	0.374
80.000	120.424	79.993	19.996	103.201	20.005	3.322	0.402
80.501	120.601	79.994	19.997	103.203	20.006	3.188	0.394
81.001	120.765	79.992	19.996	103.202	20.000	3.641	0.358
81.501	120.995	79.992	19.996	103.201	20.001	3.547	0.368
82.001	121.154	79.993	19.996	103.202	20.000	3.663	0.391
82.501	121.359	79.991	19.997	103.198	20.003	3.451	0.376
83.001	121.560	79.994	19.996	103.195	20.004	3.386	0.385
83.501	121.748	79.992	19.996	103.193	20.004	3.353	0.397
84.000	121.953	79.992	19.996	103.193	20.001	3.588	0.391
84.500	122.181	79.991	19.997	103.192	20.004	3.349	0.413
85.000	122.375	79.993	19.995	103.195	20.001	3.535	0.428
85.500	122.567	79.992	19.997	103.195	20.003	3.394	0.404
86.000	122.785	79.993	19.995	103.196	20.001	3.584	0.398
86.500	122.971	79.992	19.996	103.191	20.005	3.255	0.407
87.000	123.200	79.991	19.996	103.188	20.004	3.386	0.410
87.500	123.413	79.994	19.995	103.186	20.003	3.404	0.428
88.000	123.639	79.993	19.996	103.189	20.002	3.512	0.440
88.500	123.834	79.993	19.995	103.189	20.001	3.533	0.430
89.000	124.048	79.993	19.995	103.192	20.002	3.517	0.415
89.500	124.227	79.993	19.996	103.195	20.005	3.288	0.401
90.000	124.462	79.993	19.996	103.196	20.006	3.190	0.404
90.500	124.691	79.993	19.995	103.196	20.004	3.341	0.440
91.000	124.847	79.990	19.996	103.197	20.004	3.361	0.425
91.500	125.082	79.993	19.995	103.197	20.002	3.525	0.388
92.000	125.307	79.993	19.995	103.198	20.004	3.376	0.425
92.500	125.516	79.991	19.996	103.199	20.005	3.298	0.447
93.000	125.727	79.991	19.996	103.200	20.003	3.399	0.427
93.500	125.923	79.992	19.997	103.201	20.006	3.207	0.413
94.000	126.152	79.993	19.996	103.203	20.007	3.127	0.416
94.500	126.406	79.992	19.996	103.202	20.004	3.325	0.454
95.000	126.576	79.991	19.996	103.199	20.005	3.315	0.453
95.500	126.818	79.993	19.997	103.198	20.005	3.319	0.418
96.000	127.020	79.991	19.996	103.199	20.004	3.367	0.428
96.500	127.249	79.991	19.996	103.199	20.006	3.225	0.437
97.000	127.457	79.992	19.996	103.201	20.006	3.194	0.434
97.501	127.705	79.991	19.996	103.204	20.003	3.437	0.447
98.001	127.917	79.993	19.996	103.204	20.005	3.282	0.458
98.500	128.122	79.992	19.996	103.201	20.003	3.410	0.438
99.001	128.357	79.992	19.995	103.198	20.005	3.302	0.429
99.501	128.565	79.991	19.997	103.195	20.001	3.557	0.442
100.000	128.781	79.992	19.996	103.193	20.002	3.488	0.433
100.500	129.011	79.992	19.996	103.191	20.004	3.364	0.435
101.000	129.243	79.993	19.996	103.189	20.003	3.404	0.454
101.500	129.462	79.992	19.996	103.190	20.005	3.288	0.456
102.000	129.736	79.994	19.995	103.193	20.004	3.335	0.472
102.500	129.929	79.992	19.995	103.189	20.002	3.474	0.480
103.000	130.147	79.994	19.996	103.183	20.003	3.445	0.439
103.501	130.406	79.994	19.995	103.182	20.002	3.500	0.444
104.001	130.584	79.992	19.997	103.181	20.003	3.396	0.457
104.500	130.800	79.992	19.996	103.176	20.003	3.412	0.416
105.000	131.051	79.993	19.997	103.180	20.004	3.333	0.430
105.500	131.280	79.993	19.996	103.183	19.999	3.676	0.473
106.000	131.557	79.994	19.996	103.188	20.005	3.262	0.494
106.500	131.772	79.996	19.995	103.192	20.006	3.225	0.499
107.001	131.990	79.994	19.996	103.197	20.004	3.348	0.463
107.501	132.255	79.993	19.997	103.193	20.003	3.427	0.458
108.000	132.469	79.994	19.996	103.195	20.001	3.579	0.481
108.500	132.723	79.991	19.996	103.194	20.004	3.342	0.473
109.000	132.930	79.993	19.996	103.196	20.005	3.315	0.465
109.500	133.174	79.994	19.996	103.196	20.003	3.425	0.457
110.000	133.416	79.994	19.996	103.199	20.006	3.199	0.469
110.500	133.621	79.994	19.997	103.196	20.004	3.344	0.466
111.000	133.888	79.994	19.997	103.190	20.006	3.221	0.459
111.500	134.107	79.994	19.996	103.188	20.005	3.288	0.479
112.000	134.333	79.994	19.995	103.187	20.005	3.260	0.465
112.500	134.536	79.993	19.995	103.183	20.003	3.423	0.437
113.000	134.809	79.991	19.996	103.186	20.002	3.480	0.453
113.501	135.020	79.994	19.996	103.190	20.004	3.329	0.480
114.001	135.303	79.992	19.996	103.190	20.005	3.260	0.489
114.500	135.533	79.993	19.996	103.190	20.003	3.421	0.504
115.000	135.746	79.995	19.995	103.196	20.004	3.325	0.478
115.500	135.998	79.993	19.996	103.196	20.006	3.250	0.454
116.000	136.248	79.992	19.995	103.197	20.003	3.426	0.483
116.500	136.454	79.994	19.995	103.192	20.006	3.246	0.479
117.000	136.708	79.992	19.994	103.188	20.004	3.387	0.459
117.501	136.972	79.994	19.996	103.181	20.002	3.522	0.489
118.001	137.209	79.993	19.996	103.176	20.004	3.368	0.509
118.500	137.413	79.994	19.995	103.172	20.003	3.458	0.471
119.000	137.703	79.994	19.994	103.171	20.004	3.381	0.468
119.500	137.932	79.994	19.995	103.170	20.004	3.346	0.506
120.001	138.197	79.995	19.994	103.172	20.002	3.491	0.506
120.501	138.435	79.993	19.994	103.175	20.005	3.289	0.498
121.000	138.681	79.992	19.995	103.175	20.002	3.497	0.493
121.500	138.914	79.992	19.994	103.175	20.007	3.146	0.481
122.000	139.164	79.993	19.995	103.175	20.005	3.277	0.481
122.500	139.405	79.993	19.995	103.176	20.002	3.507	0.487
123.000	139.659	79.993	19.995	103.175	20.002	3.483	0.493
123.500	139.898	79.994	19.995	103.176	20.001	3.550	0.494
124.000	140.147	79.994	19.995	103.175	20.003	3.428	0.491
124.500	140.387	79.993	19.996	103.175	20.004	3.334	0.488
125.000	140.678	79.992	19.995	103.173	20.006	3.221	0.510
125.500	140.918	79.994	19.995	103.171	20.006	3.207	0.531
126.000	141.121	79.995	19.996	103.169	20.005	3.293	0.487
126.501	141.439	79.995	19.996	103.168	20.005	3.301	0.482
127.001	141.633	79.994	19.996	103.168	20.005	3.277	0.516
127.500	141.892	79.995	19.995	103.166	20.003	3.403	0.482
128.000	142.159	79.994	19.995	103.166	20.003	3.438	0.489
128.500	142.354	79.993	19.995	103.166	20.005	3.275	0.494
129.000	142.635	79.995	19.995	103.165	20.005	3.256	0.470
129.500	142.857	79.992	19.996	103.167	20.003	3.440	0.490
130.000	143.134	79.996	19.995	103.168	20.006	3.230	0.500
130.500	143.383	79.995	19.995	103.168	20.006	3.252	0.512
131.000	143.649	79.995	19.996	103.169	20.005	3.264	0.521
131.500	143.888	79.995	19.995	103.170	20.004	3.336	0.511
132.000	144.138	79.996	19.995	103.167	20.006	3.187	0.497
132.500	144.416	79.996	19.994	103.166	20.004	3.375	0.508
133.000	144.621	79.995	19.996	103.166	20.002	3.518	0.505
133.500	144.863	79.995	19.995	103.166	20.004	3.356	0.465
134.000	145.145	79.996	19.995	103.164	20.003	3.409	0.486
134.500	145.413	79.996	19.995	103.164	20.006	3.195	0.537
135.000	145.632	79.994	19.995	103.164	20.004	3.348	0.518
135.500	145.902	79.997	19.995	103.165	20.005	3.289	0.488
136.000	146.139	79.993	19.995	103.165	20.003	3.415	0.498
136.500	146.385	79.994	19.995	103.165	20.005	3.283	0.495
137.000	146.616	79.993	19.994	103.164	20.004	3.332	0.480
137.500	146.888	79.993	19.996	103.164	20.006	3.219	0.490
138.000	147.125	79.993	19.996	103.163	20.002	3.487	0.507
138.500	147.391	79.993	19.996	103.162	20.002	3.499	0.506
139.000	147.634	79.992	19.995	103.161	20.004	3.389	0.506
139.500	147.911	79.992	19.996	103.161	20.007	3.172	0.515
140.000	148.098	79.992	19.995	103.161	20.005	3.303	0.492
140.500	148.384	79.992	19.995	103.160	20.006	3.230	0.468
141.000	148.627	79.992	19.995	103.161	20.004	3.363	0.501
141.500	148.877	79.993	19.996	103.163	20.004	3.383	0.511
142.000	149.120	79.991	19.995	103.164	20.004	3.346	0.493
142.500	149.368	79.992	19.996	103.164	20.002	3.464	0.492
143.000	149.658	79.992	19.995	103.164	20.007	3.140	0.514
143.500	149.895	79.993	19.995	103.164	20.004	3.369	0.532
144.000	150.156	79.992	19.995	103.163	20.003	3.418	0.513
144.500	150.403	79.993	19.995	103.163	20.003	3.432	0.503
145.000	150.643	79.994	19.995	103.164	20.005	3.275	0.497
145.500	150.886	79.992	19.996	103.164	20.003	3.395	0.485
146.000	151.159	79.993	19.995	103.164	20.003	3.403	0.499
146.500	151.378	79.994	19.996	103.164	20.001	3.563	0.504
147.000	151.623	79.993	19.995	103.164	20.000	3.607	0.478
147.500	151.848	79.993	19.995	103.164	20.004	3.340	0.467
148.000	152.170	79.993	19.995	103.164	20.004	3.324	0.509
148.500	152.382	79.993	19.996	103.164	20.004	3.364	0.541
149.000	152.662	79.992	19.996	103.165	20.004	3.369	0.513
149.500	152.888	79.993	19.995	103.165	20.006	3.209	0.499
150.000	153.134	79.993	19.994	103.165	20.006	3.221	0.489
150.500	153.369	79.992	19.995	103.165	20.007	3.123	0.477
151.000	153.659	79.993	19.995	103.163	20.003	3.448	0.503
151.500	153.848	79.991	19.996	103.161	20.003	3.462	0.502
152.000	154.113	79.994	19.996	103.161	20.003	3.450	0.467
152.500	154.375	79.993	19.994	103.161	20.003	3.393	0.491
153.000	154.577	79.994	19.995	103.161	20.003	3.436	0.495
153.500	154.860	79.995	19.995	103.164	20.004	3.383	0.475
154.000	155.091	79.993	19.995	103.166	20.006	3.211	0.500
154.500	155.356	79.991	19.996	103.165	20.003	3.403	0.505
155.000	155.566	79.993	19.996	103.165	20.007	3.164	0.486
155.500	155.883	79.993	19.995	103.164	20.004	3.348	0.501
156.000	156.124	79.995	19.996	103.163	20.003	3.420	0.543
156.500	156.337	79.995	19.996	103.163	20.003	3.414	0.506
157.000	156.589	79.993	19.996	103.164	20.004	3.371	0.459
157.500	156.843	79.994	19.994	103.164	20.005	3.273	0.486
158.000	157.088	79.994	19.996	103.162	20.009	3.012	0.503
158.500	157.303	79.992	19.995	103.163	20.007	3.151	0.479
159.000	157.601	79.993	19.996	103.163	20.007	3.173	0.486
159.500	157.821	79.990	19.996	103.162	20.006	3.220	0.515
160.000	158.071	79.993	19.995	103.163	20.003	3.445	0.494
160.500	158.326	79.992	19.995	103.165	20.007	3.130	0.488
161.000	158.589	79.992	19.996	103.166	20.004	3.377	0.512
161.500	158.800	79.992	19.996	103.166	20.006	3.191	0.496
162.000	159.069	79.994	19.994	103.166	20.009	3.028	0.477
162.500	159.282	79.992	19.995	103.166	20.009	3.001	0.481
163.000	159.532	79.993	19.994	103.167	20.004	3.379	0.472
163.500	159.844	79.992	19.996	103.167	20.005	3.303	0.512
164.000	160.046	79.992	19.997	103.167	20.004	3.385	0.538
164.500	160.318	79.993	19.995	103.167	20.003	3.405	0.494
165.000	160.565	79.993	19.996	103.167	20.004	3.387	0.496
165.500	160.785	79.991	19.996	103.166	20.007	3.124	0.493
166.000	161.061	79.992	19.997	103.165	20.004	3.375	0.482
166.500	161.290	79.993	19.995	103.160	20.004	3.361	0.501
167.000	161.537	79.992	19.996	103.153	20.004	3.373	0.490
167.500	161.789	79.993	19.996	103.151	20.001	3.565	0.487
168.000	162.069	79.993	19.996	103.149	20.002	3.504	0.515
168.500	162.272	79.991	19.996	103.142	20.001	3.597	0.507
169.000	162.525	79.991	19.996	103.145	20.001	3.591	0.470
169.500	162.773	79.993	19.995	103.149	20.002	3.499	0.479
170.000	163.027	79.993	19.997	103.149	20.000	3.652	0.502
170.500	163.255	79.991	19.996	103.146	20.002	3.475	0.492
171.000	163.510	79.990	19.998	103.152	19.999	3.699	0.483
171.500	163.774	79.992	19.997	103.152	20.000	3.661	0.501
172.000	164.012	79.992	19.996	103.148	20.001	3.567	0.510
172.500	164.296	79.993	19.996	103.149	20.000	3.628	0.512
