Sample ID:	C:\MCC\MCC Cal\Test\FRP_Panel_MCC_30K_min_211029_R2.txt
Sample Weight (mg):	4.56
Heating Rate (C/s):	0.5
Combustor Temp (C):	900
N2 Flow Rate (cc/min):	80
O2 Flow Rate (cc/min):	20
Calibration File:	C:\MCC\MCC Cal\Coeff1 JN10440_30_210304.txt.txt
T Correction Coefficients:	0	1.024463	0
Time Shift (s):	14
*
Time (s)	Temperature (C)	N2 flow rate (cc/min)	O2 flow rate (cc/min)	Flow Rate (cc/min)	Oxygen (%)	HRR (W/g)	Heating rate (C/s)
0.000	108.356	79.996	19.996	102.925	20.074	-0.631	-0.021
0.500	108.360	79.980	19.998	102.929	20.069	-0.298	-0.023
1.000	108.428	80.001	19.995	102.925	20.069	-0.320	0.030
1.500	108.435	80.002	19.997	102.928	20.069	-0.306	0.073
2.000	108.417	79.993	19.998	102.922	20.070	-0.361	0.032
2.500	108.416	79.990	19.997	102.918	20.072	-0.487	-0.015
3.000	108.413	79.989	19.995	102.916	20.071	-0.456	-0.011
3.500	108.419	79.993	19.997	102.923	20.071	-0.424	0.000
4.000	108.373	79.968	19.999	102.923	20.069	-0.322	-0.018
4.500	108.430	80.004	19.996	102.921	20.070	-0.393	-0.015
5.000	108.440	80.008	19.996	102.922	20.071	-0.426	0.039
5.500	108.372	79.993	19.994	102.923	20.070	-0.332	0.005
6.000	108.418	79.986	19.996	102.924	20.073	-0.600	-0.040
6.500	108.413	80.001	19.994	102.922	20.074	-0.634	0.009
7.000	108.400	79.989	19.997	102.931	20.071	-0.436	0.012
7.500	108.392	80.004	19.996	102.930	20.072	-0.490	-0.019
8.000	108.427	80.005	19.993	102.932	20.074	-0.628	0.003
8.500	108.333	79.981	19.997	102.927	20.068	-0.197	-0.016
9.000	108.403	79.995	19.995	102.925	20.072	-0.503	-0.041
9.501	108.371	79.981	19.998	102.922	20.068	-0.235	0.007
10.001	108.370	79.985	19.998	102.921	20.070	-0.383	0.003
10.500	108.418	79.998	19.994	102.916	20.072	-0.487	0.007
11.000	108.405	79.994	19.995	102.922	20.068	-0.233	0.041
11.500	108.380	79.999	19.994	102.927	20.070	-0.351	-0.001
12.000	108.388	79.992	19.996	102.927	20.066	-0.067	-0.027
12.500	108.332	80.003	19.995	102.930	20.065	-0.036	-0.033
13.000	108.369	79.990	19.995	102.935	20.068	-0.192	-0.034
13.500	108.370	79.997	19.995	102.933	20.064	0.091	0.009
14.000	108.375	80.004	19.994	102.935	20.066	-0.079	0.022
14.500	108.367	79.997	19.994	102.942	20.063	0.103	0.002
15.001	108.354	79.985	19.996	102.953	20.063	0.126	-0.012
15.501	108.356	79.979	19.996	102.960	20.063	0.111	-0.016
16.001	108.344	79.984	19.996	102.966	20.062	0.182	-0.010
16.501	108.374	79.991	19.994	102.969	20.058	0.448	0.004
17.001	108.400	79.996	19.994	102.973	20.061	0.298	0.037
17.500	108.382	79.993	19.996	102.980	20.058	0.447	0.032
18.000	108.401	79.994	19.995	102.987	20.058	0.482	0.004
18.500	108.399	79.964	19.998	102.996	20.058	0.484	0.009
19.001	108.418	79.995	19.995	103.000	20.052	0.931	0.017
19.501	108.468	79.981	19.994	102.998	20.054	0.739	0.043
20.000	108.472	80.001	19.995	102.975	20.057	0.573	0.062
20.500	108.523	80.007	19.995	102.965	20.057	0.522	0.055
21.000	108.504	79.985	19.997	102.963	20.056	0.624	0.044
21.500	108.550	79.995	19.996	102.963	20.056	0.595	0.029
22.001	108.543	80.006	19.994	102.967	20.052	0.869	0.033
22.501	108.533	79.963	19.999	102.998	20.054	0.790	0.011
23.000	108.574	79.996	19.995	103.041	20.052	0.869	0.007
23.500	108.587	79.991	19.996	103.059	20.051	1.002	0.043
24.000	108.615	79.995	19.995	103.071	20.051	0.996	0.048
24.500	108.641	80.010	19.996	103.082	20.051	0.939	0.048
25.000	108.677	79.993	19.994	103.082	20.046	1.310	0.058
25.500	108.669	79.990	19.996	103.064	20.049	1.126	0.045
26.000	108.695	79.983	20.000	103.059	20.046	1.334	0.024
26.500	108.766	79.995	19.995	103.063	20.048	1.215	0.058
27.000	108.810	79.996	19.995	103.071	20.043	1.525	0.106
27.500	108.829	79.989	19.996	103.077	20.042	1.577	0.089
28.001	108.856	79.995	19.997	103.078	20.038	1.857	0.054
28.501	108.892	79.984	19.999	103.084	20.046	1.352	0.055
29.001	108.907	79.987	19.997	103.087	20.042	1.589	0.057
29.501	109.030	80.013	19.993	103.089	20.040	1.729	0.094
30.001	109.043	79.997	19.996	103.097	20.045	1.375	0.137
30.501	109.089	79.979	19.996	103.102	20.041	1.693	0.098
31.001	109.133	79.986	19.997	103.102	20.039	1.824	0.074
31.500	109.175	79.996	19.995	103.103	20.041	1.665	0.088
32.000	109.236	79.987	19.996	103.102	20.042	1.608	0.094
32.500	109.288	79.990	19.998	103.096	20.039	1.831	0.108
33.000	109.365	79.974	19.997	103.091	20.043	1.559	0.121
33.501	109.432	79.985	19.997	103.096	20.042	1.590	0.136
34.001	109.477	80.001	19.995	103.102	20.039	1.792	0.128
34.500	109.578	80.003	19.994	103.103	20.040	1.736	0.129
35.000	109.636	80.006	19.995	103.101	20.038	1.855	0.152
35.500	109.683	79.997	19.995	103.100	20.039	1.847	0.132
36.000	109.706	79.980	19.998	103.093	20.041	1.685	0.088
36.500	109.791	79.998	19.994	103.084	20.042	1.626	0.089
37.000	109.859	79.996	19.994	103.078	20.037	1.928	0.131
37.501	109.951	79.995	19.995	103.076	20.038	1.871	0.157
38.001	109.987	79.997	20.001	103.082	20.042	1.577	0.144
38.500	110.050	80.011	19.997	103.084	20.043	1.571	0.113
39.000	110.160	79.987	19.997	103.090	20.041	1.658	0.136
39.500	110.211	79.997	19.996	103.093	20.041	1.701	0.167
40.000	110.279	79.985	19.998	103.093	20.040	1.771	0.140
40.500	110.330	79.994	19.998	103.088	20.040	1.733	0.119
41.001	110.434	79.993	19.996	103.084	20.040	1.779	0.137
41.501	110.498	79.988	19.997	103.084	20.040	1.784	0.162
42.000	110.610	79.987	19.996	103.078	20.037	1.980	0.172
42.500	110.705	79.990	19.997	103.078	20.041	1.658	0.191
43.000	110.743	79.996	19.995	103.075	20.040	1.779	0.170
43.501	110.855	79.992	19.996	103.073	20.044	1.463	0.142
44.001	110.951	79.994	19.994	103.069	20.044	1.498	0.178
44.501	111.008	80.008	19.992	103.070	20.043	1.552	0.180
45.001	111.097	79.989	19.995	103.070	20.042	1.629	0.150
45.500	111.174	79.995	19.995	103.067	20.042	1.605	0.156
46.001	111.260	80.003	19.993	103.069	20.042	1.643	0.165
46.501	111.333	79.992	19.995	103.072	20.041	1.684	0.161
47.000	111.419	80.004	19.994	103.075	20.041	1.700	0.159
47.500	111.494	80.002	19.995	103.078	20.040	1.753	0.160
48.000	111.603	80.000	19.995	103.087	20.039	1.795	0.172
48.500	111.626	79.980	19.995	103.092	20.040	1.763	0.158
49.000	111.744	79.987	19.995	103.093	20.039	1.815	0.137
49.500	111.850	80.000	19.995	103.094	20.041	1.712	0.182
50.000	111.962	80.004	19.992	103.091	20.038	1.860	0.221
50.500	112.045	80.011	19.993	103.096	20.035	2.104	0.207
51.001	112.090	79.987	19.995	103.099	20.036	2.052	0.161
51.501	112.226	79.988	19.995	103.102	20.039	1.847	0.154
52.000	112.312	79.998	19.994	103.102	20.037	1.995	0.202
52.500	112.389	79.992	19.997	103.104	20.037	1.967	0.193
53.000	112.488	80.006	19.995	103.103	20.034	2.193	0.170
53.500	112.584	79.993	19.996	103.107	20.035	2.082	0.185
54.000	112.690	79.999	19.996	103.106	20.035	2.088	0.198
54.500	112.764	79.998	19.995	103.114	20.033	2.240	0.192
55.000	112.826	79.976	19.998	103.121	20.034	2.155	0.158
55.500	112.940	79.982	19.998	103.120	20.033	2.236	0.156
56.000	113.065	79.992	19.997	103.117	20.034	2.163	0.207
56.500	113.217	80.008	19.993	103.122	20.035	2.131	0.258
57.000	113.299	79.995	19.996	103.126	20.038	1.902	0.255
57.500	113.442	79.994	19.994	103.124	20.033	2.236	0.229
58.000	113.515	79.981	19.998	103.130	20.034	2.187	0.221
58.500	113.669	79.988	19.995	103.128	20.034	2.197	0.222
59.001	113.728	79.987	19.996	103.128	20.036	2.052	0.221
59.501	113.875	79.987	19.996	103.125	20.034	2.187	0.209
60.000	114.003	79.990	19.995	103.127	20.033	2.258	0.240
60.500	114.105	79.994	19.995	103.131	20.030	2.438	0.252
61.000	114.220	79.993	19.996	103.141	20.031	2.388	0.224
61.500	114.355	79.999	19.996	103.148	20.029	2.533	0.234
62.000	114.432	79.981	19.996	103.154	20.031	2.355	0.231
62.500	114.556	79.992	19.996	103.159	20.034	2.193	0.206
63.001	114.694	79.999	19.995	103.161	20.031	2.377	0.232
63.501	114.828	79.991	19.995	103.162	20.029	2.533	0.268
64.000	114.934	79.999	19.995	103.160	20.027	2.656	0.256
64.500	115.049	79.987	19.997	103.161	20.025	2.804	0.230
65.000	115.192	79.977	19.998	103.160	20.027	2.695	0.239
65.500	115.345	79.998	19.995	103.158	20.031	2.402	0.277
66.000	115.456	79.988	19.995	103.160	20.026	2.715	0.280
66.501	115.619	79.988	19.996	103.162	20.030	2.468	0.269
67.001	115.713	79.980	19.996	103.159	20.028	2.632	0.265
67.500	115.830	79.991	19.997	103.159	20.028	2.584	0.234
68.000	116.017	80.008	19.992	103.156	20.027	2.650	0.258
68.500	116.098	79.986	19.996	103.160	20.024	2.867	0.286
69.000	116.290	79.993	19.995	103.157	20.025	2.802	0.271
69.500	116.408	79.998	19.994	103.158	20.024	2.903	0.292
70.000	116.558	79.994	19.995	103.158	20.025	2.820	0.288
70.500	116.732	79.994	19.994	103.161	20.025	2.779	0.296
71.000	116.848	79.992	19.995	103.155	20.026	2.741	0.307
71.500	116.993	79.991	19.996	103.156	20.022	3.045	0.276
72.000	117.193	79.990	19.996	103.156	20.027	2.644	0.303
72.500	117.301	79.991	19.996	103.157	20.022	3.004	0.327
73.000	117.478	79.992	19.996	103.161	20.025	2.828	0.296
73.501	117.600	79.990	19.995	103.161	20.027	2.699	0.292
74.001	117.764	79.995	19.995	103.162	20.022	3.012	0.292
74.500	117.883	79.991	19.993	103.163	20.023	2.956	0.285
75.000	118.059	79.992	19.994	103.165	20.022	3.006	0.289
75.500	118.242	79.990	19.995	103.165	20.023	2.980	0.327
76.000	118.379	79.996	19.996	103.164	20.021	3.127	0.340
76.500	118.561	79.993	19.995	103.166	20.023	2.931	0.320
77.000	118.710	79.984	19.996	103.166	20.026	2.741	0.325
77.500	118.885	79.995	19.994	103.165	20.025	2.820	0.327
78.000	118.979	79.987	19.995	103.165	20.021	3.061	0.297
78.500	119.181	79.990	19.995	103.166	20.025	2.814	0.282
79.001	119.361	79.998	19.993	103.164	20.025	2.780	0.339
79.501	119.502	80.018	19.993	103.170	20.024	2.901	0.352
80.000	119.686	80.000	19.994	103.175	20.024	2.891	0.323
80.500	119.851	79.995	19.997	103.177	20.024	2.851	0.337
81.000	120.053	79.997	19.996	103.178	20.022	3.029	0.358
81.501	120.169	79.998	19.996	103.185	20.023	2.964	0.343
82.001	120.364	79.997	19.997	103.182	20.020	3.144	0.314
82.500	120.547	79.986	19.998	103.178	20.022	3.045	0.344
83.000	120.737	80.002	19.996	103.176	20.021	3.063	0.376
83.500	120.852	79.988	19.998	103.181	20.023	2.964	0.339
84.001	121.033	79.998	19.996	103.175	20.022	3.002	0.301
84.501	121.217	79.998	19.994	103.177	20.022	2.988	0.331
85.000	121.372	79.996	19.997	103.178	20.022	3.023	0.352
85.500	121.586	79.981	19.994	103.178	20.023	2.966	0.354
86.000	121.767	79.996	19.997	103.181	20.023	2.982	0.382
86.500	121.952	79.982	19.997	103.181	20.023	2.986	0.380
87.000	122.158	79.990	19.995	103.178	20.021	3.105	0.378
87.500	122.303	79.983	19.996	103.179	20.023	2.937	0.371
88.000	122.524	79.993	19.995	103.179	20.023	2.957	0.359
88.500	122.700	79.990	19.995	103.173	20.021	3.087	0.382
89.000	122.866	79.989	19.995	103.171	20.023	2.979	0.370
89.500	123.071	79.992	19.996	103.172	20.023	2.966	0.357
90.001	123.253	79.977	19.997	103.169	20.024	2.860	0.379
90.501	123.446	79.984	19.996	103.168	20.021	3.101	0.381
91.000	123.656	80.009	19.995	103.165	20.026	2.717	0.389
91.500	123.835	79.997	19.996	103.169	20.023	2.958	0.396
92.000	124.024	79.976	19.996	103.167	20.022	3.045	0.378
92.500	124.243	79.991	19.997	103.166	20.022	3.045	0.388
93.000	124.410	79.997	19.995	103.166	20.022	3.014	0.397
93.500	124.608	79.987	19.998	103.169	20.022	3.022	0.376
94.000	124.793	79.986	19.996	103.164	20.027	2.695	0.374
94.500	125.006	79.997	19.996	103.165	20.023	2.933	0.391
95.000	125.177	79.995	19.995	103.167	20.027	2.703	0.392
95.500	125.368	79.997	19.996	103.172	20.021	3.105	0.373
96.000	125.550	79.982	19.997	103.169	20.020	3.164	0.367
96.500	125.798	79.998	19.997	103.168	20.020	3.179	0.401
97.001	125.975	79.993	19.996	103.167	20.022	3.039	0.427
97.501	126.210	80.003	19.994	103.165	20.024	2.863	0.418
98.000	126.360	79.990	19.996	103.169	20.021	3.087	0.399
98.500	126.557	79.994	19.995	103.174	20.020	3.148	0.367
99.000	126.806	79.996	19.995	103.180	20.020	3.152	0.397
99.500	126.978	79.981	19.996	103.188	20.024	2.894	0.433
100.000	127.181	80.000	19.994	103.187	20.018	3.307	0.398
100.500	127.352	80.007	19.997	103.182	20.028	2.605	0.374
101.000	127.590	80.002	19.994	103.178	20.024	2.882	0.391
101.500	127.800	80.003	19.995	103.180	20.025	2.811	0.428
102.000	128.011	79.976	19.997	103.175	20.022	2.993	0.435
102.500	128.184	80.004	19.994	103.173	20.021	3.074	0.403
103.000	128.438	80.000	19.996	103.175	20.025	2.787	0.406
103.500	128.614	79.999	19.994	103.174	20.024	2.874	0.428
104.000	128.825	79.998	19.995	103.172	20.021	3.083	0.408
104.500	129.023	79.984	19.996	103.171	20.022	3.042	0.398
105.000	129.264	79.995	19.996	103.175	20.022	3.049	0.424
105.500	129.460	79.980	19.997	103.173	20.019	3.245	0.438
106.000	129.698	79.985	19.996	103.171	20.021	3.073	0.435
106.500	129.882	79.991	19.996	103.170	20.023	2.964	0.428
107.000	130.053	79.977	20.000	103.168	20.026	2.737	0.389
107.500	130.311	79.992	19.994	103.162	20.021	3.099	0.392
108.000	130.523	80.007	19.996	103.165	20.025	2.796	0.449
108.501	130.762	80.002	19.993	103.166	20.022	3.053	0.460
109.001	130.965	80.001	19.995	103.166	20.021	3.085	0.447
109.500	131.163	79.993	19.999	103.170	20.018	3.296	0.422
110.001	131.346	79.984	20.001	103.183	20.021	3.124	0.391
110.501	131.569	79.985	20.002	103.188	20.024	2.909	0.394
111.000	131.774	80.000	20.001	103.198	20.022	3.014	0.417
111.500	132.036	80.005	20.003	103.204	20.023	2.984	0.447
112.000	132.203	80.020	20.002	103.204	20.025	2.836	0.448
112.500	132.412	80.008	20.003	103.202	20.022	3.047	0.402
113.000	132.649	80.010	20.003	103.200	20.022	2.996	0.411
113.501	132.888	80.018	20.004	103.199	20.022	3.051	0.461
114.001	133.066	79.980	20.007	103.195	20.027	2.683	0.447
114.500	133.329	80.007	20.003	103.190	20.025	2.812	0.429
115.000	133.592	79.992	20.004	103.188	20.025	2.810	0.484
115.500	133.797	80.002	20.001	103.181	20.022	2.994	0.497
116.000	133.992	79.992	20.001	103.177	20.027	2.700	0.434
116.500	134.193	80.002	19.997	103.173	20.020	3.188	0.398
117.000	134.408	79.991	19.998	103.178	20.025	2.781	0.406
117.500	134.636	79.999	19.997	103.172	20.023	2.982	0.429
118.000	134.823	79.989	19.998	103.174	20.024	2.897	0.429
118.500	135.100	79.992	19.996	103.169	20.022	2.992	0.440
119.000	135.281	79.991	19.996	103.169	20.022	2.996	0.461
119.500	135.510	79.983	19.997	103.163	20.023	2.960	0.434
120.000	135.727	79.983	19.997	103.165	20.021	3.101	0.428
120.500	135.966	79.999	19.995	103.163	20.019	3.215	0.451
121.000	136.159	79.996	19.997	103.168	20.019	3.241	0.444
121.500	136.418	79.995	19.996	103.165	20.022	3.046	0.442
122.000	136.649	79.998	19.997	103.168	20.021	3.105	0.471
122.500	136.841	79.984	19.996	103.167	20.024	2.889	0.456
123.000	137.115	79.986	19.993	103.166	20.020	3.134	0.445
123.500	137.265	79.963	19.998	103.168	20.023	2.946	0.445
124.000	137.527	79.988	19.996	103.168	20.021	3.126	0.418
124.500	137.745	79.991	19.996	103.170	20.023	2.948	0.446
125.000	137.994	79.970	19.998	103.171	20.021	3.079	0.473
125.500	138.221	79.992	19.996	103.175	20.022	3.023	0.471
126.000	138.447	79.993	19.996	103.173	20.021	3.067	0.464
126.500	138.647	79.982	19.998	103.182	20.022	3.017	0.440
127.000	138.941	79.997	19.996	103.184	20.022	3.051	0.460
127.500	139.136	79.983	19.997	103.188	20.021	3.065	0.491
128.000	139.383	79.996	19.996	103.187	20.018	3.320	0.465
128.500	139.608	80.001	19.996	103.184	20.019	3.263	0.457
129.000	139.835	79.994	19.996	103.177	20.017	3.362	0.462
129.500	140.042	79.993	19.995	103.173	20.019	3.253	0.443
130.000	140.319	80.002	19.994	103.171	20.021	3.079	0.459
130.500	140.529	79.985	19.995	103.170	20.020	3.178	0.486
131.000	140.780	80.009	19.994	103.172	20.019	3.243	0.474
131.500	141.019	79.996	19.993	103.175	20.022	2.990	0.475
132.000	141.217	79.999	19.995	103.182	20.022	3.006	0.463
132.500	141.470	79.999	19.996	103.183	20.021	3.124	0.444
133.000	141.663	79.991	19.997	103.182	20.021	3.099	0.449
133.500	141.938	79.975	19.998	103.181	20.021	3.118	0.457
134.000	142.130	79.987	19.997	103.175	20.019	3.217	0.468
134.500	142.370	79.989	19.996	103.167	20.022	3.003	0.450
135.000	142.601	79.990	19.995	103.164	20.021	3.077	0.451
135.500	142.896	79.990	19.996	103.163	20.020	3.134	0.498
136.000	143.087	79.986	19.996	103.163	20.020	3.190	0.505
136.500	143.320	80.004	19.996	103.162	20.022	3.051	0.454
137.000	143.597	79.972	19.996	103.161	20.021	3.114	0.467
137.500	143.877	80.008	19.992	103.158	20.019	3.223	0.534
138.000	144.087	79.996	19.995	103.163	20.019	3.247	0.523
138.500	144.323	79.991	19.996	103.164	20.020	3.174	0.468
139.000	144.570	79.996	19.994	103.163	20.021	3.106	0.465
139.500	144.784	79.988	19.994	103.167	20.021	3.110	0.472
140.001	145.062	80.000	19.995	103.172	20.020	3.174	0.477
140.501	145.268	79.979	19.998	103.168	20.019	3.261	0.488
141.001	145.507	79.991	19.995	103.165	20.023	2.956	0.464
141.500	145.751	80.002	19.994	103.170	20.019	3.211	0.464
142.000	145.969	79.984	19.996	103.171	20.021	3.085	0.472
142.500	146.219	79.992	19.995	103.171	20.022	3.047	0.465
143.001	146.454	79.989	19.995	103.171	20.019	3.223	0.477
143.500	146.696	79.992	19.997	103.173	20.018	3.286	0.480
144.000	146.913	79.995	19.996	103.171	20.021	3.114	0.468
144.500	147.146	79.994	19.996	103.166	20.021	3.077	0.455
145.000	147.387	79.987	19.997	103.164	20.020	3.170	0.462
145.500	147.646	79.994	19.996	103.161	20.019	3.239	0.487
146.001	147.903	79.993	19.996	103.163	20.019	3.231	0.508
146.501	148.139	79.992	19.996	103.166	20.022	2.992	0.504
147.000	148.403	79.998	19.995	103.169	20.018	3.270	0.497
147.500	148.612	79.992	19.997	103.169	20.018	3.270	0.487
148.000	148.869	79.988	19.996	103.170	20.019	3.249	0.470
148.500	149.098	79.995	19.996	103.168	20.020	3.150	0.476
149.000	149.377	79.992	19.995	103.165	20.019	3.203	0.497
149.500	149.610	79.990	19.996	103.163	20.021	3.087	0.510
150.000	149.868	79.991	19.997	103.162	20.018	3.286	0.501
150.500	150.095	79.977	19.998	103.165	20.019	3.213	0.488
151.000	150.344	79.993	19.997	103.163	20.018	3.292	0.481
151.500	150.596	79.990	19.996	103.166	20.017	3.362	0.488
152.000	150.814	79.993	19.996	103.167	20.018	3.296	0.486
152.500	151.062	79.985	19.997	103.168	20.020	3.128	0.468
153.000	151.325	79.983	19.998	103.165	20.017	3.356	0.489
153.500	151.580	80.007	19.995	103.165	20.020	3.170	0.515
154.000	151.804	80.004	19.996	103.165	20.014	3.591	0.499
154.500	152.034	79.983	19.998	103.164	20.018	3.269	0.467
155.000	152.325	80.000	19.996	103.162	20.017	3.403	0.487
155.500	152.584	79.986	19.998	103.164	20.017	3.342	0.535
156.000	152.821	80.004	19.996	103.164	20.017	3.378	0.523
156.500	153.059	79.993	19.996	103.162	20.016	3.480	0.485
157.000	153.282	79.995	19.997	103.162	20.018	3.314	0.468
157.500	153.516	79.987	19.997	103.164	20.018	3.334	0.459
158.000	153.758	79.989	19.998	103.162	20.016	3.462	0.466
158.500	154.032	79.997	19.997	103.162	20.016	3.464	0.496
159.000	154.281	79.986	19.996	103.162	20.014	3.555	0.519
159.500	154.488	79.989	19.998	103.162	20.017	3.379	0.489
160.000	154.786	79.992	19.996	103.158	20.015	3.482	0.480
160.500	155.022	79.994	19.996	103.162	20.015	3.537	0.520
161.000	155.237	79.989	19.997	103.163	20.016	3.434	0.493
161.500	155.495	79.983	19.998	103.162	20.016	3.437	0.462
162.000	155.737	79.992	19.997	103.161	20.017	3.373	0.487
162.500	155.978	79.991	19.997	103.166	20.021	3.079	0.492
163.000	156.226	80.006	19.993	103.165	20.018	3.276	0.486
163.500	156.463	79.992	19.997	103.170	20.019	3.263	0.487
164.000	156.731	79.990	19.994	103.172	20.017	3.354	0.495
164.500	156.954	79.997	19.995	103.173	20.018	3.332	0.498
165.000	157.176	79.992	19.994	103.175	20.017	3.387	0.468
165.500	157.471	80.004	19.993	103.176	20.015	3.547	0.481
166.000	157.732	79.995	19.995	103.175	20.023	2.982	0.536
166.500	157.941	80.001	19.995	103.173	20.015	3.496	0.513
167.000	158.174	79.993	19.996	103.174	20.016	3.421	0.456
167.500	158.450	80.000	19.994	103.170	20.015	3.526	0.476
168.000	158.696	79.976	19.994	103.170	20.017	3.375	0.515
168.500	158.925	79.984	19.997	103.169	20.015	3.530	0.499
169.000	159.186	79.995	19.994	103.165	20.015	3.494	0.483
169.500	159.418	79.993	19.994	103.162	20.017	3.356	0.491
170.000	159.672	79.993	19.995	103.161	20.014	3.551	0.489
170.500	159.932	79.994	19.995	103.158	20.017	3.397	0.500
171.000	160.168	79.998	19.995	103.154	20.016	3.439	0.505
171.500	160.411	79.999	19.995	103.158	20.018	3.302	0.487
172.000	160.659	79.989	19.995	103.159	20.016	3.464	0.485
172.500	160.900	79.993	19.997	103.162	20.016	3.425	0.490
