Sample ID:	C:\MCC\MCC Cal\Test\Cotton_Ball\Cotton_Ball_MCC_30K_min_21_07_08_R2.txt
Sample Weight (mg):	3.11
Heating Rate (C/s):	0.5
Combustor Temp (C):	900
N2 Flow Rate (cc/min):	80
O2 Flow Rate (cc/min):	20
Calibration File:	C:\MCC\MCC Cal\Coeff1 JN10440_30_210304.txt.txt
T Correction Coefficients:	0	1.024463	0
Time Shift (s):	14
*
Time (s)	Temperature (C)	N2 flow rate (cc/min)	O2 flow rate (cc/min)	Flow Rate (cc/min)	Oxygen (%)	HRR (W/g)	Heating rate (C/s)
0.000	111.411	79.995	19.995	99.954	20.184	-0.005	0.024
0.500	111.351	79.996	19.996	99.957	20.184	0.016	-0.028
1.000	111.379	79.995	19.996	99.957	20.183	0.091	-0.051
1.500	111.403	79.997	19.996	99.955	20.182	0.201	0.010
2.000	111.383	79.995	19.996	99.952	20.183	0.126	0.028
2.500	111.361	79.997	19.995	99.947	20.184	0.066	-0.019
3.000	111.360	79.997	19.996	99.942	20.182	0.225	-0.033
3.500	111.367	79.996	19.995	99.943	20.185	-0.027	-0.008
4.000	111.356	79.996	19.995	99.946	20.185	-0.025	0.001
4.500	111.305	79.997	19.995	99.950	20.184	0.036	-0.033
5.000	111.357	79.997	19.994	99.954	20.184	0.044	-0.031
5.500	111.323	79.998	19.995	99.956	20.184	-0.005	0.010
6.000	111.361	79.996	19.996	99.950	20.183	0.096	0.011
6.500	111.361	79.996	19.995	99.946	20.182	0.187	0.021
7.000	111.323	79.998	19.996	99.941	20.184	0.049	0.000
7.500	111.329	79.997	19.997	99.937	20.182	0.203	-0.035
8.001	111.341	79.997	19.996	99.934	20.180	0.412	-0.007
8.501	111.360	79.998	19.995	99.936	20.184	0.060	0.024
9.000	111.334	79.997	19.995	99.941	20.182	0.261	0.012
9.500	111.293	79.997	19.995	99.945	20.180	0.431	-0.037
10.001	111.310	79.998	19.995	99.947	20.184	0.060	-0.045
10.501	111.351	79.998	19.994	99.950	20.182	0.236	0.017
11.001	111.308	79.997	19.995	99.953	20.183	0.126	0.028
11.500	111.306	79.998	19.995	99.954	20.183	0.107	-0.023
12.000	111.314	79.998	19.995	99.956	20.180	0.475	-0.019
12.500	111.316	79.998	19.995	99.958	20.181	0.300	0.008
13.000	111.315	79.998	19.995	99.957	20.182	0.267	0.005
13.500	111.336	79.997	19.995	99.954	20.182	0.220	0.010
14.000	111.336	79.998	19.994	99.952	20.184	0.033	0.021
14.500	111.286	79.997	19.995	99.953	20.183	0.104	-0.014
15.000	111.303	79.997	19.995	99.954	20.181	0.330	-0.042
15.500	111.275	79.998	19.995	99.955	20.182	0.253	-0.022
16.000	111.294	79.997	19.995	99.958	20.180	0.462	-0.010
16.500	111.278	79.998	19.995	99.960	20.181	0.360	-0.003
17.000	111.252	79.997	19.996	99.960	20.180	0.418	-0.020
17.500	111.272	79.998	19.995	99.960	20.183	0.170	-0.024
18.000	111.267	79.996	19.994	99.960	20.179	0.545	0.005
18.500	111.254	79.997	19.995	99.961	20.181	0.308	-0.001
19.000	111.278	79.997	19.996	99.962	20.176	0.789	-0.004
19.500	111.245	79.996	19.996	99.965	20.180	0.462	0.001
20.000	111.295	79.997	19.995	99.969	20.180	0.440	0.004
20.500	111.286	79.996	19.995	99.972	20.179	0.526	0.029
21.000	111.279	79.993	19.996	99.974	20.175	0.963	0.013
21.500	111.278	79.994	19.995	99.980	20.180	0.424	-0.012
22.001	111.285	79.995	19.995	99.985	20.178	0.647	-0.001
22.500	111.289	79.994	19.995	99.989	20.178	0.652	0.009
23.000	111.288	79.995	19.995	99.995	20.175	0.889	0.007
23.500	111.291	79.994	19.995	100.001	20.169	1.497	0.002
24.000	111.300	79.995	19.995	100.005	20.171	1.312	0.007
24.500	111.313	79.993	19.996	100.007	20.168	1.587	0.017
25.000	111.309	79.995	19.996	100.010	20.167	1.722	0.016
25.500	111.287	79.994	19.996	100.016	20.165	1.909	-0.009
26.001	111.326	79.994	19.995	100.024	20.171	1.310	-0.004
26.501	111.348	79.995	19.996	100.031	20.168	1.630	0.039
27.001	111.373	79.995	19.997	100.037	20.168	1.641	0.054
27.500	111.341	79.994	19.995	100.044	20.169	1.515	0.020
28.000	111.362	79.994	19.996	100.048	20.164	1.997	-0.009
28.500	111.392	79.994	19.996	100.055	20.164	2.002	0.020
29.000	111.401	79.993	19.997	100.062	20.164	2.065	0.045
29.500	111.452	79.995	19.996	100.069	20.165	1.974	0.049
30.000	111.465	79.993	19.996	100.082	20.161	2.384	0.062
30.500	111.500	79.995	19.996	100.095	20.161	2.351	0.056
31.000	111.515	79.995	19.996	100.103	20.160	2.439	0.049
31.500	111.543	79.994	19.996	100.111	20.158	2.656	0.047
32.000	111.577	79.994	19.997	100.118	20.158	2.614	0.052
32.500	111.624	79.994	19.996	100.126	20.159	2.576	0.071
33.000	111.648	79.995	19.996	100.130	20.153	3.104	0.076
33.500	111.669	79.994	19.996	100.132	20.154	3.022	0.058
34.000	111.761	79.995	19.996	100.133	20.155	2.978	0.080
34.500	111.747	79.994	19.996	100.109	20.152	3.217	0.096
35.001	111.788	79.992	19.995	100.081	20.150	3.399	0.052
35.501	111.872	79.994	19.997	100.070	20.153	3.187	0.076
36.001	111.927	79.994	19.995	100.068	20.152	3.256	0.132
36.501	111.975	79.995	19.995	100.070	20.153	3.093	0.121
37.001	112.002	79.994	19.995	100.102	20.154	3.030	0.089
37.501	112.069	79.996	19.995	100.168	20.153	3.190	0.084
38.000	112.104	79.994	19.995	100.195	20.151	3.319	0.098
38.500	112.167	79.994	19.994	100.200	20.153	3.093	0.100
39.000	112.231	79.997	19.996	100.204	20.152	3.289	0.113
39.500	112.300	79.995	19.995	100.203	20.147	3.771	0.130
40.001	112.351	79.994	19.995	100.167	20.148	3.603	0.126
40.501	112.463	79.995	19.995	100.153	20.149	3.534	0.141
41.001	112.538	79.994	19.994	100.153	20.148	3.644	0.175
41.501	112.596	79.993	19.995	100.150	20.146	3.820	0.160
42.000	112.687	79.994	19.995	100.145	20.150	3.418	0.141
42.500	112.760	79.994	19.994	100.139	20.142	4.216	0.157
43.001	112.812	79.995	19.995	100.133	20.145	3.985	0.145
43.501	112.878	79.994	19.995	100.128	20.147	3.773	0.121
44.000	112.980	79.995	19.994	100.129	20.147	3.770	0.142
44.500	113.056	79.995	19.995	100.131	20.144	4.018	0.173
45.001	113.134	79.994	19.994	100.131	20.145	3.908	0.166
45.501	113.165	79.995	19.994	100.132	20.147	3.796	0.131
46.000	113.325	79.994	19.994	100.134	20.147	3.757	0.150
46.500	113.393	79.994	19.994	100.138	20.148	3.694	0.209
47.000	113.496	79.994	19.995	100.138	20.146	3.848	0.200
47.500	113.572	79.993	19.994	100.140	20.146	3.804	0.175
48.000	113.676	79.993	19.994	100.140	20.147	3.713	0.179
48.500	113.737	79.995	19.994	100.139	20.146	3.843	0.172
49.000	113.845	79.994	19.994	100.137	20.144	4.058	0.167
49.500	113.919	79.994	19.993	100.140	20.150	3.435	0.176
50.000	114.015	79.994	19.995	100.142	20.148	3.675	0.177
50.500	114.131	79.995	19.995	100.142	20.147	3.793	0.191
51.000	114.191	79.994	19.995	100.140	20.144	4.085	0.194
51.500	114.328	79.995	19.995	100.136	20.146	3.895	0.186
52.001	114.440	79.993	19.995	100.131	20.144	4.069	0.223
52.501	114.541	79.995	19.995	100.128	20.144	4.009	0.231
53.000	114.653	79.994	19.996	100.129	20.143	4.111	0.213
53.500	114.725	79.994	19.995	100.131	20.142	4.243	0.199
54.000	114.810	79.996	19.995	100.131	20.143	4.183	0.170
54.500	114.896	79.994	19.995	100.132	20.139	4.584	0.164
55.001	115.017	79.995	19.995	100.134	20.142	4.301	0.189
55.501	115.124	79.995	19.995	100.137	20.140	4.477	0.217
56.001	115.222	79.995	19.995	100.142	20.140	4.477	0.217
56.501	115.308	79.995	19.995	100.148	20.141	4.380	0.195
57.001	115.421	79.994	19.995	100.153	20.141	4.356	0.192
57.501	115.530	79.993	19.995	100.157	20.140	4.471	0.210
58.000	115.663	79.995	19.995	100.159	20.140	4.477	0.232
58.500	115.798	79.996	19.995	100.159	20.142	4.298	0.256
59.000	115.889	79.995	19.996	100.158	20.136	4.826	0.247
59.500	116.001	79.996	19.995	100.159	20.141	4.380	0.214
60.001	116.134	79.995	19.995	100.160	20.141	4.366	0.224
60.501	116.204	79.995	19.996	100.159	20.139	4.545	0.224
61.000	116.353	79.996	19.995	100.159	20.140	4.465	0.211
61.500	116.484	79.996	19.995	100.161	20.137	4.768	0.249
62.000	116.595	79.997	19.995	100.164	20.135	4.969	0.261
62.500	116.728	79.996	19.995	100.164	20.133	5.156	0.243
63.000	116.883	79.995	19.995	100.168	20.137	4.738	0.267
63.500	117.021	79.997	19.994	100.175	20.135	4.930	0.290
64.000	117.121	79.998	19.994	100.179	20.134	5.040	0.265
64.501	117.260	79.998	19.995	100.180	20.134	5.043	0.239
65.001	117.372	79.996	19.994	100.187	20.137	4.773	0.245
65.500	117.551	79.996	19.995	100.184	20.136	4.894	0.271
66.000	117.649	79.997	19.995	100.177	20.135	4.944	0.284
66.500	117.771	79.997	19.995	100.174	20.133	5.183	0.248
67.001	117.884	79.996	19.995	100.175	20.132	5.299	0.228
67.501	118.072	79.996	19.995	100.175	20.134	5.032	0.269
68.001	118.124	79.996	19.995	100.179	20.132	5.288	0.271
68.501	118.298	79.998	19.994	100.180	20.135	4.935	0.233
69.000	118.473	79.997	19.995	100.179	20.134	5.032	0.287
69.500	118.552	79.997	19.995	100.173	20.135	4.927	0.302
70.001	118.688	79.996	19.994	100.166	20.136	4.806	0.235
70.501	118.876	79.997	19.994	100.164	20.135	5.002	0.270
71.001	119.005	79.998	19.994	100.165	20.138	4.702	0.321
71.501	119.220	79.997	19.995	100.163	20.139	4.561	0.330
72.000	119.338	79.997	19.995	100.165	20.134	5.018	0.338
72.500	119.409	79.998	19.994	100.166	20.133	5.156	0.261
73.001	119.606	79.997	19.994	100.165	20.132	5.288	0.229
73.501	119.727	79.996	19.995	100.162	20.134	5.018	0.294
74.001	119.958	79.996	19.994	100.163	20.140	4.492	0.335
74.501	120.081	79.997	19.994	100.162	20.136	4.875	0.353
75.000	120.192	79.995	19.994	100.160	20.136	4.845	0.294
75.500	120.404	79.995	19.994	100.160	20.141	4.369	0.278
76.000	120.542	79.996	19.995	100.161	20.134	5.032	0.337
76.500	120.647	79.997	19.994	100.161	20.140	4.404	0.297
77.001	120.771	79.997	19.995	100.161	20.139	4.575	0.236
77.501	120.953	79.996	19.995	100.160	20.138	4.624	0.267
78.001	121.093	79.998	19.994	100.160	20.136	4.855	0.314
78.501	121.261	79.996	19.995	100.158	20.136	4.847	0.315
79.001	121.442	79.995	19.995	100.158	20.138	4.647	0.328
79.501	121.595	79.997	19.995	100.157	20.134	5.076	0.342
80.000	121.777	79.996	19.994	100.157	20.139	4.589	0.335
80.500	121.972	79.997	19.994	100.158	20.137	4.798	0.356
81.001	122.065	79.997	19.994	100.158	20.142	4.242	0.333
81.501	122.244	79.996	19.995	100.159	20.139	4.528	0.280
82.001	122.436	79.996	19.996	100.159	20.141	4.355	0.321
82.501	122.624	79.998	19.995	100.159	20.140	4.468	0.376
83.000	122.739	79.997	19.995	100.158	20.139	4.550	0.342
83.500	122.943	79.996	19.996	100.159	20.139	4.534	0.311
84.000	123.110	79.996	19.994	100.159	20.142	4.294	0.345
84.500	123.286	79.997	19.996	100.160	20.142	4.228	0.357
85.000	123.459	79.996	19.995	100.160	20.138	4.663	0.346
85.500	123.555	79.998	19.995	100.160	20.139	4.520	0.308
86.000	123.832	79.997	19.995	100.159	20.143	4.121	0.321
86.500	123.960	79.998	19.994	100.159	20.139	4.592	0.389
87.001	124.142	79.997	19.996	100.158	20.141	4.385	0.358
87.501	124.320	79.997	19.996	100.152	20.142	4.231	0.335
88.000	124.494	79.998	19.995	100.149	20.138	4.677	0.356
88.500	124.629	79.997	19.995	100.150	20.141	4.385	0.331
89.000	124.784	79.997	19.995	100.150	20.142	4.212	0.300
89.500	124.999	79.998	19.996	100.152	20.140	4.482	0.330
90.001	125.135	79.998	19.995	100.158	20.142	4.270	0.361
90.501	125.352	79.998	19.995	100.160	20.143	4.138	0.352
91.001	125.543	79.997	19.996	100.160	20.141	4.333	0.380
91.501	125.682	79.998	19.994	100.160	20.145	3.945	0.369
92.001	125.802	79.998	19.996	100.161	20.143	4.171	0.294
92.501	125.968	79.997	19.995	100.161	20.144	4.038	0.273
93.000	126.213	79.999	19.996	100.161	20.143	4.115	0.349
93.500	126.337	79.998	19.996	100.161	20.144	4.022	0.390
94.000	126.624	79.997	19.994	100.162	20.143	4.195	0.390
94.500	126.758	79.998	19.995	100.162	20.145	3.945	0.416
95.001	126.927	79.999	19.995	100.161	20.140	4.432	0.362
95.501	127.082	79.998	19.996	100.161	20.142	4.206	0.313
96.001	127.277	79.998	19.995	100.161	20.145	3.983	0.337
96.501	127.436	79.998	19.996	100.160	20.140	4.402	0.351
97.001	127.654	79.997	19.994	100.159	20.140	4.424	0.365
97.501	127.834	79.998	19.995	100.159	20.141	4.357	0.387
98.001	127.978	79.998	19.995	100.159	20.140	4.407	0.361
98.501	128.181	79.997	19.996	100.162	20.140	4.426	0.336
99.000	128.354	79.995	19.995	100.165	20.140	4.484	0.362
99.500	128.529	79.995	19.996	100.166	20.144	4.088	0.362
100.001	128.710	79.994	19.995	100.168	20.141	4.330	0.352
100.501	128.904	79.996	19.995	100.168	20.141	4.391	0.366
101.001	129.092	79.995	19.995	100.165	20.141	4.382	0.379
101.501	129.280	79.994	19.995	100.165	20.143	4.187	0.379
102.001	129.414	79.995	19.995	100.164	20.144	4.044	0.349
102.501	129.675	79.995	19.996	100.163	20.141	4.322	0.359
103.000	129.824	79.996	19.995	100.164	20.146	3.813	0.403
103.500	130.006	79.994	19.995	100.165	20.144	4.038	0.370
104.000	130.184	79.995	19.995	100.164	20.140	4.404	0.345
104.500	130.400	79.996	19.996	100.164	20.139	4.504	0.377
105.001	130.585	79.996	19.995	100.164	20.143	4.195	0.397
105.501	130.783	79.995	19.995	100.164	20.143	4.154	0.392
106.001	130.902	79.995	19.995	100.164	20.142	4.242	0.350
106.501	131.123	79.994	19.995	100.164	20.140	4.435	0.329
107.001	131.328	79.995	19.996	100.164	20.143	4.126	0.382
107.500	131.514	79.996	19.995	100.164	20.141	4.347	0.409
108.001	131.706	79.994	19.996	100.163	20.138	4.606	0.385
108.501	131.881	79.995	19.996	100.157	20.141	4.322	0.373
109.000	132.053	79.994	19.995	100.156	20.134	5.090	0.357
109.500	132.245	79.996	19.995	100.156	20.137	4.776	0.355
110.000	132.476	79.995	19.996	100.155	20.137	4.740	0.394
110.500	132.591	79.995	19.996	100.156	20.135	4.963	0.385
111.000	132.796	79.995	19.995	100.161	20.140	4.404	0.333
111.500	132.974	79.994	19.996	100.162	20.139	4.592	0.351
112.000	133.213	79.994	19.996	100.164	20.140	4.407	0.400
112.501	133.398	79.996	19.996	100.165	20.137	4.784	0.420
113.001	133.579	79.994	19.996	100.164	20.141	4.388	0.395
113.500	133.787	79.994	19.996	100.165	20.135	4.969	0.378
114.000	133.978	79.995	19.995	100.164	20.134	5.040	0.395
114.500	134.183	79.996	19.996	100.163	20.137	4.732	0.398
115.000	134.357	79.995	19.996	100.163	20.140	4.440	0.387
115.501	134.544	79.994	19.995	100.162	20.139	4.575	0.370
116.001	134.766	79.995	19.997	100.161	20.138	4.683	0.385
116.500	134.976	79.996	19.996	100.161	20.136	4.851	0.420
117.000	135.142	79.994	19.996	100.161	20.135	4.911	0.404
117.500	135.347	79.996	19.996	100.160	20.136	4.850	0.374
118.000	135.531	79.996	19.996	100.162	20.137	4.762	0.380
118.501	135.742	79.995	19.996	100.168	20.136	4.831	0.392
119.001	135.908	79.995	19.996	100.168	20.136	4.859	0.387
119.500	136.122	79.995	19.997	100.169	20.135	4.988	0.379
120.000	136.322	79.995	19.996	100.170	20.137	4.737	0.397
120.501	136.486	79.995	19.996	100.168	20.136	4.837	0.389
121.001	136.679	79.995	19.996	100.162	20.137	4.746	0.360
121.500	136.904	79.996	19.996	100.161	20.138	4.652	0.387
122.000	137.090	79.996	19.995	100.160	20.137	4.757	0.415
122.500	137.294	79.996	19.995	100.159	20.135	4.966	0.401
123.000	137.464	79.995	19.995	100.159	20.135	4.991	0.382
123.501	137.679	79.996	19.996	100.159	20.137	4.768	0.379
124.001	137.874	79.995	19.996	100.160	20.136	4.870	0.398
124.501	138.076	79.997	19.995	100.161	20.136	4.806	0.403
125.001	138.270	79.996	19.995	100.161	20.135	4.933	0.396
125.500	138.468	79.994	19.995	100.162	20.135	4.969	0.394
126.000	138.685	79.996	19.997	100.166	20.135	4.974	0.404
126.501	138.874	79.996	19.995	100.168	20.136	4.903	0.410
127.001	139.045	79.996	19.995	100.168	20.134	5.065	0.383
127.500	139.293	79.997	19.996	100.168	20.134	5.076	0.389
128.000	139.454	79.997	19.995	100.167	20.135	4.905	0.414
128.500	139.686	79.994	19.995	100.163	20.135	4.936	0.401
129.000	139.913	79.994	19.994	100.161	20.135	4.980	0.426
129.500	140.123	79.995	19.994	100.160	20.133	5.189	0.448
130.000	140.289	79.995	19.995	100.159	20.135	4.963	0.406
130.500	140.511	79.994	19.995	100.160	20.134	5.032	0.382
131.000	140.735	79.995	19.995	100.160	20.132	5.230	0.417
131.500	140.946	79.995	19.995	100.160	20.129	5.553	0.441
132.000	141.104	79.996	19.994	100.161	20.133	5.195	0.402
132.500	141.346	79.995	19.996	100.161	20.134	5.098	0.385
133.000	141.545	79.995	19.995	100.161	20.133	5.161	0.420
133.500	141.779	79.994	19.995	100.161	20.130	5.437	0.437
134.000	141.964	79.995	19.996	100.162	20.129	5.572	0.426
134.500	142.166	79.995	19.995	100.163	20.132	5.231	0.403
135.000	142.401	79.996	19.995	100.163	20.133	5.170	0.412
135.500	142.605	79.995	19.995	100.164	20.135	4.997	0.438
136.000	142.811	79.995	19.996	100.164	20.133	5.137	0.425
136.500	143.028	79.996	19.995	100.164	20.132	5.225	0.417
137.000	143.235	79.997	19.995	100.163	20.133	5.123	0.423
137.500	143.421	79.995	19.995	100.163	20.134	5.079	0.408
138.000	143.651	79.997	19.994	100.162	20.132	5.236	0.405
138.500	143.836	79.996	19.995	100.162	20.132	5.277	0.416
139.000	144.051	79.996	19.995	100.162	20.132	5.225	0.407
139.500	144.306	79.995	19.995	100.161	20.135	5.002	0.435
140.000	144.505	79.996	19.995	100.161	20.130	5.503	0.462
140.501	144.729	79.997	19.995	100.161	20.131	5.316	0.438
141.001	144.914	79.995	19.995	100.162	20.131	5.327	0.416
141.500	145.122	79.996	19.995	100.163	20.133	5.182	0.401
142.000	145.351	79.997	19.995	100.164	20.130	5.487	0.415
142.500	145.598	79.997	19.996	100.165	20.125	5.936	0.456
143.000	145.785	79.996	19.996	100.165	20.132	5.214	0.454
143.500	145.994	79.997	19.995	100.164	20.132	5.258	0.415
144.000	146.189	79.996	19.995	100.162	20.129	5.580	0.401
144.500	146.444	79.996	19.996	100.162	20.130	5.476	0.427
145.000	146.605	79.997	19.996	100.164	20.131	5.360	0.433
145.500	146.805	79.998	19.995	100.167	20.131	5.390	0.388
146.000	147.066	79.996	19.995	100.168	20.131	5.393	0.411
146.500	147.329	79.996	19.996	100.168	20.129	5.542	0.493
147.000	147.529	79.998	19.995	100.167	20.129	5.539	0.494
147.500	147.713	79.998	19.994	100.164	20.130	5.437	0.423
148.000	147.929	79.997	19.995	100.161	20.131	5.393	0.392
148.500	148.136	79.997	19.996	100.159	20.132	5.286	0.411
149.000	148.368	79.998	19.994	100.159	20.127	5.790	0.431
149.500	148.608	79.995	19.995	100.159	20.129	5.602	0.456
150.000	148.800	79.998	19.995	100.162	20.127	5.715	0.452
150.500	149.047	79.998	19.995	100.167	20.129	5.528	0.435
151.000	149.285	79.996	19.994	100.171	20.127	5.779	0.462
151.500	149.503	79.996	19.994	100.177	20.130	5.487	0.471
152.000	149.709	79.997	19.995	100.178	20.128	5.690	0.440
152.500	149.911	79.996	19.995	100.178	20.128	5.621	0.416
153.000	150.179	79.996	19.995	100.174	20.128	5.696	0.439
153.500	150.349	79.997	19.995	100.173	20.130	5.492	0.454
154.001	150.557	79.996	19.994	100.169	20.127	5.800	0.408
154.501	150.783	79.996	19.994	100.168	20.124	6.098	0.406
155.001	151.014	79.997	19.995	100.168	20.129	5.542	0.446
155.500	151.220	79.996	19.995	100.167	20.128	5.625	0.447
156.000	151.469	79.997	19.995	100.166	20.127	5.752	0.446
156.501	151.693	79.997	19.994	100.167	20.127	5.719	0.464
157.001	151.864	79.994	19.994	100.168	20.129	5.532	0.434
157.500	152.116	79.997	19.995	100.168	20.128	5.705	0.409
158.000	152.318	79.996	19.995	100.171	20.127	5.749	0.439
158.500	152.593	79.997	19.994	100.171	20.130	5.498	0.466
159.000	152.784	79.997	19.994	100.170	20.127	5.727	0.472
159.500	153.003	79.993	19.994	100.170	20.128	5.691	0.438
160.000	153.244	79.996	19.995	100.171	20.128	5.608	0.435
160.501	153.458	79.996	19.994	100.169	20.126	5.828	0.457
161.001	153.720	79.996	19.994	100.170	20.128	5.619	0.466
161.500	153.866	79.998	19.993	100.171	20.129	5.525	0.442
162.000	154.082	79.996	19.995	100.170	20.127	5.734	0.385
162.500	154.328	79.997	19.995	100.167	20.127	5.797	0.412
163.000	154.540	79.994	19.995	100.165	20.127	5.784	0.460
163.500	154.773	79.996	19.993	100.165	20.129	5.596	0.451
164.000	155.029	79.998	19.994	100.164	20.127	5.778	0.466
164.501	155.239	79.997	19.995	100.164	20.130	5.462	0.477
165.001	155.421	79.997	19.994	100.164	20.128	5.608	0.429
165.500	155.663	79.996	19.994	100.165	20.129	5.583	0.408
166.000	155.892	79.997	19.993	100.169	20.130	5.503	0.448
166.500	156.105	79.996	19.994	100.175	20.127	5.775	0.457
167.000	156.363	79.999	19.995	100.182	20.130	5.434	0.457
167.501	156.557	79.997	19.995	100.187	20.134	5.065	0.461
168.001	156.766	79.998	19.995	100.191	20.130	5.415	0.428
168.500	157.021	79.997	19.994	100.187	20.126	5.874	0.433
169.000	157.264	79.998	19.994	100.184	20.129	5.541	0.481
169.500	157.491	79.998	19.995	100.181	20.129	5.572	0.484
170.000	157.705	79.997	19.995	100.177	20.130	5.442	0.455
170.500	157.947	79.998	19.994	100.172	20.130	5.453	0.448
171.000	158.172	79.998	19.994	100.173	20.127	5.709	0.462
171.500	158.417	79.997	19.995	100.171	20.126	5.841	0.468
172.000	158.643	79.999	19.994	100.166	20.129	5.511	0.470
172.500	158.865	79.999	19.994	100.165	20.128	5.657	0.460
