Sample ID:	C:\MCC\MCC Cal\Countertop_Plastic_LaminateA_MCC_30K_min_211103_R3.txt
Sample Weight (mg):	4.62
Heating Rate (C/s):	0.5
Combustor Temp (C):	900
N2 Flow Rate (cc/min):	80
O2 Flow Rate (cc/min):	20
Calibration File:	C:\MCC\MCC Cal\Coeff1 JN10440_30_210304.txt.txt
T Correction Coefficients:	0	1.024463	0
Time Shift (s):	14
*
Time (s)	Temperature (C)	N2 flow rate (cc/min)	O2 flow rate (cc/min)	Flow Rate (cc/min)	Oxygen (%)	HRR (W/g)	Heating rate (C/s)
0.000	107.596	80.008	19.996	103.052	20.133	0.142	0.014
0.500	107.627	80.007	19.995	103.052	20.133	0.096	-0.016
1.000	107.630	80.008	19.995	103.054	20.134	0.011	0.009
1.500	107.593	80.007	19.994	103.057	20.133	0.125	0.000
2.000	107.591	80.008	19.995	103.058	20.133	0.083	-0.036
2.500	107.628	80.008	19.994	103.058	20.134	0.053	-0.002
3.000	107.632	80.008	19.995	103.057	20.133	0.091	0.038
3.500	107.611	80.008	19.994	103.055	20.134	0.011	0.012
4.000	107.612	80.009	19.995	103.054	20.135	-0.009	-0.019
4.500	107.623	80.008	19.995	103.054	20.135	-0.017	-0.004
5.000	107.586	80.008	19.995	103.054	20.136	-0.115	-0.007
5.500	107.632	80.008	19.995	103.055	20.132	0.168	-0.009
6.000	107.605	80.010	19.995	103.057	20.135	-0.017	0.014
6.500	107.612	80.009	19.994	103.056	20.130	0.310	-0.000
7.000	107.580	80.009	19.995	103.056	20.134	0.013	-0.022
7.500	107.613	80.009	19.995	103.056	20.134	0.040	-0.012
8.000	107.606	80.009	19.994	103.057	20.133	0.127	0.014
8.500	107.675	80.010	19.997	103.056	20.136	-0.083	0.044
9.000	107.604	80.010	19.995	103.054	20.136	-0.110	0.030
9.500	107.635	80.009	19.997	103.053	20.133	0.115	-0.021
10.000	107.619	80.009	19.996	103.054	20.131	0.255	-0.012
10.500	107.620	80.010	19.996	103.058	20.134	0.053	-0.000
11.001	107.635	80.010	19.996	103.064	20.133	0.106	0.000
11.501	107.616	80.010	19.994	103.068	20.131	0.234	0.006
12.000	107.616	80.009	19.995	103.068	20.130	0.287	-0.011
12.500	107.620	80.008	19.995	103.070	20.130	0.295	-0.008
13.000	107.584	80.009	19.995	103.067	20.130	0.285	-0.014
13.500	107.601	80.009	19.995	103.065	20.134	0.074	-0.025
14.000	107.617	80.008	19.995	103.064	20.129	0.410	0.007
14.500	107.582	80.009	19.995	103.069	20.127	0.503	0.007
15.000	107.609	80.008	19.994	103.076	20.131	0.280	-0.014
15.501	107.599	80.009	19.994	103.083	20.128	0.473	0.004
16.001	107.568	80.007	19.995	103.096	20.128	0.459	-0.012
16.500	107.610	80.008	19.995	103.111	20.126	0.597	-0.015
17.000	107.648	80.008	19.995	103.121	20.125	0.692	0.046
17.501	107.638	80.008	19.994	103.128	20.122	0.849	0.054
18.001	107.665	80.007	19.995	103.140	20.126	0.599	0.023
18.500	107.666	80.008	19.995	103.148	20.121	0.958	0.022
19.000	107.658	80.005	19.995	103.156	20.122	0.864	0.010
19.500	107.659	80.006	19.995	103.164	20.120	0.983	-0.007
20.000	107.710	80.006	19.995	103.174	20.120	0.989	0.023
20.500	107.727	80.006	19.995	103.181	20.114	1.412	0.060
21.000	107.733	80.006	19.996	103.189	20.115	1.393	0.045
21.501	107.745	80.006	19.995	103.201	20.114	1.437	0.021
22.001	107.804	80.006	19.996	103.211	20.110	1.694	0.045
22.500	107.832	80.006	19.995	103.217	20.111	1.667	0.079
23.000	107.848	80.005	19.996	103.225	20.111	1.652	0.065
23.500	107.879	80.006	19.995	103.229	20.108	1.870	0.045
24.000	107.926	80.005	19.996	103.234	20.108	1.866	0.062
24.500	107.933	80.006	19.995	103.237	20.104	2.142	0.066
25.000	107.965	80.006	19.996	103.243	20.102	2.290	0.047
25.500	107.987	80.006	19.996	103.245	20.103	2.182	0.047
26.000	108.059	80.004	19.996	103.249	20.103	2.201	0.074
26.501	108.103	80.005	19.995	103.250	20.104	2.120	0.105
27.001	108.167	80.004	19.996	103.252	20.102	2.245	0.112
27.500	108.200	80.004	19.995	103.251	20.101	2.326	0.103
28.000	108.261	80.005	19.996	103.252	20.100	2.390	0.095
28.500	108.289	80.004	19.996	103.251	20.101	2.339	0.091
29.000	108.365	80.006	19.995	103.249	20.101	2.327	0.097
29.500	108.415	80.005	19.997	103.249	20.102	2.290	0.115
30.000	108.463	80.006	19.995	103.251	20.099	2.479	0.112
30.500	108.526	80.006	19.995	103.251	20.104	2.144	0.104
31.000	108.614	80.005	19.995	103.253	20.100	2.388	0.131
31.500	108.646	80.007	19.995	103.260	20.101	2.358	0.136
32.000	108.741	80.007	19.995	103.261	20.100	2.409	0.124
32.500	108.792	80.006	19.995	103.253	20.100	2.394	0.136
33.000	108.836	80.006	19.995	103.248	20.099	2.502	0.120
33.500	108.895	80.006	19.995	103.247	20.098	2.581	0.099
34.000	108.976	80.005	19.996	103.242	20.097	2.588	0.122
34.500	109.052	80.006	19.995	103.242	20.098	2.520	0.149
35.001	109.144	80.007	19.995	103.254	20.098	2.573	0.162
35.501	109.231	80.007	19.995	103.263	20.095	2.736	0.173
36.000	109.338	80.006	19.996	103.268	20.094	2.823	0.187
36.500	109.349	80.006	19.994	103.273	20.095	2.787	0.156
37.000	109.480	80.006	19.994	103.277	20.098	2.555	0.130
37.500	109.558	80.007	19.994	103.280	20.098	2.583	0.176
38.000	109.639	80.006	19.995	103.281	20.093	2.870	0.184
38.500	109.705	80.006	19.995	103.277	20.096	2.690	0.153
39.000	109.764	80.006	19.994	103.273	20.096	2.713	0.136
39.500	109.856	80.007	19.994	103.270	20.095	2.777	0.138
40.000	109.969	80.006	19.995	103.264	20.094	2.809	0.178
40.501	110.047	80.006	19.994	103.264	20.095	2.758	0.197
41.001	110.204	80.008	19.994	103.271	20.096	2.719	0.213
41.500	110.244	80.006	19.994	103.278	20.093	2.868	0.216
42.000	110.346	80.006	19.995	103.285	20.092	2.959	0.170
42.500	110.425	80.006	19.994	103.287	20.095	2.764	0.161
43.000	110.551	80.006	19.994	103.284	20.095	2.789	0.193
43.500	110.634	80.008	19.994	103.278	20.093	2.912	0.207
44.000	110.741	80.006	19.994	103.275	20.098	2.560	0.200
44.500	110.893	80.007	19.995	103.269	20.092	2.986	0.225
45.000	110.974	80.006	19.994	103.267	20.095	2.766	0.246
45.500	111.077	80.006	19.994	103.269	20.096	2.717	0.209
46.000	111.184	80.007	19.994	103.270	20.096	2.723	0.198
46.500	111.309	80.006	19.994	103.269	20.097	2.630	0.221
47.001	111.427	80.006	19.995	103.274	20.094	2.838	0.238
47.501	111.511	80.005	19.994	103.278	20.097	2.609	0.222
48.000	111.570	80.006	19.994	103.274	20.097	2.651	0.172
48.500	111.724	80.006	19.995	103.270	20.095	2.760	0.178
49.000	111.835	80.005	19.994	103.267	20.096	2.717	0.239
49.500	111.942	80.006	19.994	103.263	20.097	2.645	0.242
50.000	112.035	80.007	19.994	103.259	20.096	2.657	0.209
50.500	112.156	80.006	19.994	103.258	20.096	2.658	0.207
51.000	112.317	80.007	19.994	103.259	20.098	2.562	0.248
51.500	112.410	80.007	19.995	103.258	20.094	2.846	0.268
52.000	112.560	80.007	19.994	103.257	20.095	2.755	0.248
52.500	112.632	80.007	19.994	103.260	20.095	2.733	0.232
53.000	112.751	80.006	19.995	103.264	20.095	2.742	0.206
53.500	112.895	80.007	19.994	103.264	20.097	2.612	0.227
54.000	112.979	80.007	19.993	103.263	20.094	2.806	0.246
54.500	113.097	80.006	19.994	103.264	20.095	2.736	0.215
55.000	113.255	80.006	19.995	103.264	20.093	2.890	0.239
55.500	113.347	80.006	19.995	103.266	20.095	2.750	0.263
56.000	113.509	80.008	19.994	103.273	20.095	2.778	0.252
56.500	113.591	80.004	19.993	103.280	20.095	2.793	0.249
57.000	113.729	80.007	19.994	103.281	20.094	2.833	0.232
57.500	113.882	80.007	19.995	103.277	20.094	2.848	0.255
58.000	114.041	80.007	19.995	103.272	20.094	2.863	0.301
58.500	114.138	80.007	19.994	103.266	20.094	2.825	0.284
59.000	114.281	80.006	19.994	103.263	20.091	3.047	0.249
59.500	114.418	80.006	19.995	103.264	20.095	2.735	0.260
60.000	114.520	80.006	19.996	103.265	20.093	2.907	0.259
60.500	114.707	80.008	19.994	103.265	20.096	2.676	0.264
61.000	114.824	80.008	19.995	103.266	20.092	2.941	0.296
61.500	114.958	80.008	19.995	103.265	20.094	2.861	0.277
62.000	115.094	80.008	19.995	103.269	20.093	2.892	0.261
62.500	115.229	80.008	19.994	103.276	20.093	2.926	0.271
63.000	115.376	80.008	19.995	103.282	20.091	3.041	0.277
63.500	115.518	80.008	19.995	103.288	20.090	3.117	0.285
64.000	115.627	80.008	19.994	103.291	20.088	3.225	0.270
64.500	115.810	80.007	19.994	103.288	20.090	3.085	0.272
65.001	115.927	80.007	19.994	103.283	20.089	3.193	0.296
65.501	116.095	80.008	19.995	103.280	20.092	2.998	0.292
66.000	116.206	80.008	19.994	103.281	20.090	3.080	0.282
66.500	116.344	80.008	19.994	103.281	20.088	3.218	0.264
67.000	116.481	80.009	19.995	103.284	20.087	3.341	0.262
67.500	116.661	80.009	19.994	103.289	20.088	3.220	0.296
68.000	116.793	80.008	19.995	103.291	20.089	3.195	0.314
68.500	116.971	80.009	19.995	103.290	20.086	3.371	0.311
69.001	117.124	80.008	19.994	103.291	20.088	3.232	0.320
69.501	117.243	80.009	19.993	103.291	20.089	3.159	0.302
70.001	117.431	80.009	19.993	103.289	20.088	3.266	0.290
70.501	117.543	80.009	19.994	103.283	20.087	3.295	0.303
71.000	117.696	80.008	19.994	103.281	20.087	3.310	0.282
71.500	117.840	80.009	19.994	103.281	20.086	3.390	0.281
72.000	118.053	80.009	19.993	103.281	20.086	3.394	0.327
72.500	118.188	80.009	19.994	103.283	20.087	3.309	0.353
73.000	118.341	80.008	19.994	103.292	20.085	3.473	0.318
73.501	118.522	80.008	19.994	103.295	20.089	3.199	0.311
74.001	118.663	80.007	19.994	103.295	20.089	3.163	0.328
74.500	118.821	80.008	19.994	103.295	20.085	3.458	0.311
75.000	118.985	80.009	19.994	103.294	20.088	3.284	0.311
75.500	119.138	80.009	19.993	103.293	20.086	3.418	0.319
76.001	119.289	80.006	19.994	103.299	20.088	3.270	0.310
76.501	119.472	80.008	19.994	103.307	20.085	3.442	0.319
77.000	119.607	80.008	19.994	103.313	20.088	3.238	0.326
77.500	119.798	80.007	19.995	103.318	20.085	3.435	0.322
78.000	119.939	80.008	19.994	103.318	20.086	3.382	0.329
78.500	120.131	80.008	19.993	103.314	20.085	3.429	0.333
79.000	120.292	80.009	19.994	103.309	20.086	3.386	0.343
79.500	120.463	80.008	19.994	103.307	20.087	3.300	0.343
80.000	120.641	80.007	19.994	103.304	20.085	3.433	0.341
80.501	120.799	80.007	19.995	103.304	20.086	3.403	0.343
81.001	120.950	80.007	19.994	103.302	20.085	3.486	0.322
81.500	121.168	80.008	19.994	103.305	20.087	3.348	0.339
82.000	121.323	80.007	19.994	103.308	20.084	3.550	0.371
82.500	121.507	80.008	19.994	103.315	20.086	3.406	0.356
83.000	121.667	80.008	19.995	103.322	20.082	3.675	0.342
83.500	121.875	80.009	19.994	103.328	20.087	3.293	0.356
84.000	122.044	80.007	19.994	103.324	20.090	3.142	0.372
84.500	122.215	80.007	19.994	103.320	20.088	3.234	0.358
85.000	122.399	80.007	19.994	103.318	20.085	3.439	0.347
85.500	122.564	80.007	19.995	103.314	20.085	3.437	0.352
86.000	122.789	80.008	19.995	103.307	20.084	3.493	0.370
86.500	122.972	80.008	19.994	103.307	20.083	3.609	0.399
87.000	123.139	80.007	19.994	103.307	20.086	3.355	0.379
87.500	123.334	80.007	19.995	103.301	20.085	3.457	0.356
88.000	123.522	80.008	19.995	103.298	20.084	3.546	0.373
88.500	123.727	80.009	19.995	103.299	20.086	3.375	0.388
89.000	123.888	80.007	19.995	103.302	20.084	3.539	0.379
89.500	124.088	80.008	19.994	103.301	20.085	3.488	0.364
90.001	124.285	80.009	19.994	103.301	20.087	3.351	0.379
90.501	124.488	80.008	19.995	103.300	20.087	3.335	0.398
91.000	124.661	80.008	19.995	103.302	20.087	3.286	0.388
91.500	124.854	80.008	19.995	103.297	20.084	3.500	0.371
92.000	125.048	80.008	19.995	103.296	20.086	3.409	0.377
92.500	125.210	80.010	19.996	103.296	20.084	3.545	0.372
93.001	125.439	80.009	19.995	103.298	20.084	3.536	0.373
93.501	125.609	80.009	19.994	103.302	20.084	3.508	0.395
94.000	125.808	80.009	19.996	103.307	20.083	3.597	0.384
94.500	126.004	80.010	19.994	103.308	20.083	3.616	0.382
95.000	126.215	80.007	19.995	103.308	20.084	3.538	0.401
95.500	126.419	80.009	19.995	103.308	20.083	3.625	0.411
96.000	126.563	80.008	19.994	103.302	20.083	3.624	0.381
96.500	126.777	80.008	19.995	103.296	20.084	3.516	0.353
97.000	127.015	80.008	19.995	103.295	20.085	3.468	0.405
97.500	127.207	80.008	19.994	103.296	20.086	3.421	0.441
98.000	127.385	80.009	19.994	103.297	20.084	3.559	0.400
98.500	127.591	80.008	19.995	103.299	20.086	3.354	0.377
99.000	127.804	80.008	19.994	103.303	20.082	3.672	0.402
99.501	128.013	80.008	19.995	103.309	20.082	3.634	0.421
100.001	128.191	80.008	19.994	103.315	20.083	3.629	0.405
100.501	128.383	80.008	19.996	103.320	20.081	3.723	0.379
101.000	128.581	80.007	19.995	103.327	20.085	3.457	0.380
101.501	128.820	80.006	19.995	103.330	20.083	3.583	0.413
102.001	129.000	80.007	19.995	103.330	20.082	3.702	0.428
102.500	129.196	80.007	19.994	103.329	20.084	3.521	0.398
103.000	129.416	80.006	19.994	103.329	20.084	3.494	0.397
103.500	129.622	80.007	19.994	103.329	20.085	3.489	0.422
104.000	129.798	80.005	19.993	103.330	20.081	3.755	0.404
104.500	129.995	80.006	19.995	103.332	20.083	3.576	0.377
105.000	130.254	80.005	19.995	103.334	20.084	3.504	0.414
105.500	130.448	80.006	19.994	103.334	20.080	3.787	0.454
106.000	130.660	80.007	19.994	103.337	20.082	3.698	0.429
106.501	130.867	80.006	19.995	103.344	20.085	3.469	0.412
107.001	131.038	80.006	19.994	103.345	20.082	3.695	0.399
107.500	131.264	80.006	19.995	103.346	20.083	3.593	0.388
108.000	131.506	80.006	19.994	103.346	20.083	3.619	0.433
108.501	131.707	80.006	19.994	103.342	20.083	3.576	0.455
109.001	131.929	80.006	19.994	103.330	20.083	3.587	0.433
109.500	132.148	80.006	19.995	103.326	20.084	3.555	0.432
110.000	132.355	80.006	19.994	103.326	20.084	3.519	0.434
110.500	132.594	80.006	19.994	103.326	20.083	3.607	0.436
111.000	132.827	80.006	19.994	103.327	20.082	3.634	0.459
111.500	133.043	80.007	19.995	103.330	20.081	3.753	0.461
112.000	133.277	80.006	19.995	103.332	20.083	3.596	0.450
112.500	133.444	80.006	19.995	103.330	20.085	3.445	0.425
113.000	133.679	80.006	19.996	103.330	20.085	3.443	0.401
113.500	133.918	80.006	19.995	103.329	20.086	3.375	0.438
114.000	134.117	80.007	19.995	103.331	20.084	3.503	0.456
114.500	134.384	80.007	19.995	103.331	20.083	3.594	0.452
115.000	134.599	80.008	19.994	103.330	20.086	3.376	0.474
115.500	134.799	80.007	19.994	103.325	20.085	3.454	0.448
116.000	135.034	80.006	19.995	103.321	20.086	3.386	0.425
116.500	135.268	80.005	19.994	103.314	20.085	3.424	0.452
117.000	135.481	80.006	19.996	103.313	20.085	3.479	0.458
117.501	135.689	80.007	19.996	103.315	20.085	3.433	0.434
118.001	135.920	80.006	19.996	103.318	20.087	3.314	0.430
118.501	136.151	80.007	19.996	103.322	20.084	3.505	0.450
119.001	136.355	80.007	19.996	103.328	20.087	3.348	0.449
119.501	136.599	80.006	19.996	103.331	20.088	3.243	0.442
120.000	136.837	80.007	19.995	103.329	20.082	3.645	0.465
120.500	137.037	80.006	19.996	103.325	20.088	3.263	0.460
121.000	137.283	80.006	19.996	103.317	20.086	3.407	0.442
121.500	137.565	80.006	19.995	103.310	20.086	3.386	0.487
122.000	137.766	80.006	19.996	103.307	20.086	3.395	0.506
122.500	138.006	80.007	19.995	103.306	20.086	3.377	0.462
123.000	138.233	80.008	19.996	103.308	20.088	3.282	0.454
123.501	138.468	80.008	19.996	103.315	20.085	3.441	0.465
124.001	138.701	80.008	19.995	103.320	20.082	3.696	0.465
124.500	138.909	80.007	19.996	103.317	20.084	3.509	0.454
125.000	139.152	80.007	19.995	103.311	20.085	3.462	0.446
125.500	139.372	80.006	19.996	103.308	20.085	3.490	0.457
126.001	139.624	80.007	19.996	103.308	20.085	3.479	0.468
126.501	139.879	80.007	19.996	103.307	20.088	3.273	0.489
127.000	140.080	80.007	19.995	103.313	20.086	3.390	0.482
127.500	140.359	80.007	19.996	103.316	20.085	3.471	0.468
128.000	140.588	80.008	19.995	103.318	20.085	3.430	0.494
128.500	140.811	80.006	19.996	103.319	20.087	3.307	0.480
129.000	141.049	80.006	19.996	103.321	20.083	3.564	0.457
129.500	141.266	80.006	19.996	103.322	20.084	3.500	0.458
130.000	141.497	80.007	19.996	103.323	20.084	3.515	0.451
130.500	141.722	80.008	19.995	103.323	20.085	3.443	0.452
131.000	141.996	80.006	19.996	103.320	20.085	3.460	0.477
131.500	142.237	80.008	19.995	103.315	20.085	3.424	0.507
132.000	142.419	80.007	19.994	103.311	20.088	3.270	0.469
132.500	142.691	80.006	19.995	103.311	20.086	3.376	0.439
133.000	142.944	80.007	19.994	103.312	20.086	3.372	0.490
133.500	143.165	80.006	19.995	103.316	20.087	3.331	0.499
134.000	143.425	80.006	19.995	103.320	20.087	3.329	0.477
134.500	143.634	80.006	19.994	103.317	20.088	3.282	0.475
135.000	143.895	80.006	19.995	103.319	20.086	3.365	0.470
135.500	144.120	80.006	19.993	103.321	20.084	3.522	0.478
136.000	144.369	80.007	19.995	103.321	20.083	3.607	0.480
136.500	144.624	80.006	19.995	103.320	20.083	3.578	0.490
137.000	144.854	80.006	19.995	103.319	20.083	3.599	0.495
137.500	145.097	80.006	19.996	103.317	20.087	3.344	0.479
138.000	145.307	80.007	19.995	103.312	20.088	3.278	0.462
138.500	145.587	80.007	19.995	103.313	20.087	3.295	0.471
139.000	145.841	80.007	19.995	103.315	20.084	3.518	0.512
139.500	146.089	80.006	19.995	103.321	20.085	3.423	0.518
140.000	146.309	80.007	19.995	103.323	20.091	3.074	0.485
140.500	146.555	80.005	19.995	103.326	20.089	3.178	0.467
141.000	146.824	80.007	19.995	103.325	20.087	3.293	0.491
141.500	147.052	80.007	19.995	103.320	20.089	3.180	0.506
142.000	147.298	80.007	19.995	103.313	20.089	3.206	0.485
142.500	147.535	80.006	19.994	103.309	20.088	3.259	0.478
143.000	147.766	80.007	19.995	103.308	20.085	3.435	0.476
143.500	148.007	80.007	19.995	103.304	20.086	3.406	0.470
144.000	148.251	80.007	19.994	103.303	20.086	3.418	0.479
144.500	148.504	80.007	19.995	103.305	20.087	3.309	0.492
145.000	148.741	80.007	19.995	103.309	20.085	3.451	0.494
145.500	149.017	80.007	19.995	103.307	20.088	3.267	0.501
146.000	149.257	80.008	19.994	103.306	20.085	3.475	0.514
146.500	149.503	80.007	19.994	103.307	20.084	3.512	0.501
147.000	149.757	80.007	19.994	103.304	20.087	3.352	0.493
147.500	150.000	80.008	19.994	103.298	20.085	3.437	0.499
148.000	150.250	80.008	19.996	103.299	20.085	3.461	0.495
148.500	150.484	80.008	19.995	103.300	20.086	3.380	0.488
149.000	150.736	80.008	19.995	103.298	20.086	3.420	0.485
149.500	150.978	80.007	19.995	103.299	20.089	3.212	0.490
150.000	151.185	80.008	19.994	103.300	20.089	3.213	0.472
150.500	151.461	80.007	19.994	103.301	20.084	3.527	0.467
151.000	151.692	80.008	19.994	103.302	20.085	3.433	0.495
151.500	151.951	80.008	19.994	103.306	20.085	3.457	0.498
152.000	152.197	80.009	19.995	103.307	20.087	3.316	0.497
152.500	152.476	80.009	19.994	103.306	20.085	3.435	0.515
153.000	152.719	80.007	19.994	103.303	20.084	3.505	0.524
153.500	152.961	80.008	19.994	103.299	20.087	3.300	0.503
154.000	153.191	80.007	19.995	103.297	20.086	3.414	0.478
154.500	153.451	80.007	19.994	103.304	20.086	3.402	0.481
155.000	153.696	80.008	19.995	103.311	20.083	3.576	0.497
155.500	153.953	80.008	19.994	103.318	20.085	3.463	0.503
156.000	154.197	80.009	19.994	103.319	20.084	3.512	0.501
156.500	154.441	80.008	19.995	103.317	20.084	3.524	0.495
157.000	154.668	80.009	19.995	103.310	20.083	3.607	0.480
157.500	154.931	80.008	19.994	103.302	20.079	3.847	0.481
158.000	155.158	80.006	19.995	103.300	20.081	3.713	0.490
158.500	155.410	80.008	19.993	103.301	20.084	3.531	0.484
159.000	155.674	80.008	19.994	103.302	20.079	3.852	0.497
159.501	155.884	80.009	19.994	103.303	20.081	3.712	0.495
160.000	156.113	80.007	19.995	103.303	20.079	3.888	0.456
160.500	156.394	80.007	19.995	103.300	20.078	3.966	0.474
161.000	156.618	80.008	19.994	103.300	20.082	3.690	0.508
161.500	156.860	80.008	19.994	103.301	20.080	3.813	0.486
162.000	157.128	80.008	19.995	103.301	20.083	3.624	0.488
162.500	157.375	80.009	19.995	103.301	20.081	3.756	0.513
163.000	157.683	80.008	19.994	103.300	20.079	3.872	0.535
163.500	157.918	80.007	19.995	103.297	20.079	3.849	0.548
164.000	158.126	80.007	19.995	103.296	20.081	3.715	0.493
164.500	158.402	80.008	19.994	103.296	20.081	3.728	0.464
165.000	158.590	80.006	19.994	103.296	20.083	3.628	0.474
165.500	158.881	80.008	19.994	103.296	20.082	3.698	0.471
166.000	159.112	80.006	19.995	103.296	20.081	3.758	0.501
166.500	159.352	80.008	19.994	103.297	20.080	3.808	0.496
167.000	159.620	80.007	19.994	103.297	20.079	3.866	0.489
167.500	159.871	80.009	19.994	103.297	20.080	3.813	0.513
168.000	160.091	80.008	19.995	103.298	20.082	3.689	0.495
168.500	160.377	80.008	19.994	103.298	20.084	3.556	0.489
169.000	160.618	80.008	19.993	103.296	20.082	3.658	0.516
169.500	160.868	80.009	19.994	103.296	20.079	3.843	0.509
170.000	161.131	80.007	19.994	103.292	20.080	3.775	0.502
170.500	161.335	80.008	19.995	103.286	20.081	3.716	0.490
171.000	161.615	80.008	19.994	103.287	20.080	3.822	0.475
171.500	161.837	80.008	19.994	103.288	20.084	3.561	0.493
172.000	162.080	80.007	19.995	103.290	20.080	3.775	0.483
172.500	162.324	80.009	19.993	103.295	20.083	3.580	0.476
