Sample ID:	C:\MCC\MCC Cal\Test\Wood_Veneer_MDF_MCC_30K_min_220315_R2.txt
Sample Weight (mg):	4.66
Heating Rate (C/s):	0.5
Combustor Temp (C):	900
N2 Flow Rate (cc/min):	80
O2 Flow Rate (cc/min):	20
Calibration File:	C:\MCC\MCC Cal\Coeff1 JN10440_30_210304.txt.txt
T Correction Coefficients:	0	1.024463	0
Time Shift (s):	14
*
Time (s)	Temperature (C)	N2 flow rate (cc/min)	O2 flow rate (cc/min)	Flow Rate (cc/min)	Oxygen (%)	HRR (W/g)	Heating rate (C/s)
0.000	116.556	80.012	19.993	103.715	19.888	-0.263	0.018
0.500	116.502	80.014	19.996	103.717	19.887	-0.182	-0.015
1.000	116.567	80.013	19.994	103.717	19.890	-0.371	-0.015
1.500	116.549	80.015	19.995	103.716	19.886	-0.127	0.029
2.000	116.511	80.012	19.995	103.712	19.884	0.030	-0.005
2.500	116.476	80.013	19.991	103.713	19.888	-0.238	-0.064
3.000	116.512	80.015	19.995	103.713	19.888	-0.227	-0.036
3.500	116.490	80.015	19.994	103.715	19.888	-0.252	0.007
4.000	116.479	80.012	19.996	103.719	19.888	-0.221	-0.009
4.500	116.492	80.012	19.996	103.726	19.890	-0.344	-0.016
5.001	116.492	80.014	19.993	103.728	19.890	-0.346	0.007
5.500	116.473	80.013	19.993	103.726	19.892	-0.504	-0.003
6.000	116.453	80.017	19.994	103.725	19.887	-0.174	-0.029
6.500	116.462	80.013	19.997	103.720	19.887	-0.189	-0.025
7.000	116.489	80.015	19.994	103.716	19.889	-0.295	0.013
7.500	116.455	80.015	19.993	103.713	19.886	-0.123	0.015
8.000	116.485	80.014	19.993	103.716	19.885	-0.047	-0.006
8.500	116.428	80.015	19.994	103.722	19.883	0.115	-0.016
9.000	116.456	80.015	19.994	103.727	19.884	0.074	-0.028
9.500	116.456	80.013	19.994	103.734	19.885	-0.042	-0.001
10.000	116.447	80.015	19.993	103.738	19.882	0.165	0.010
10.501	116.441	80.016	19.995	103.741	19.886	-0.068	-0.012
11.001	116.449	80.017	19.993	103.741	19.886	-0.131	-0.006
11.500	116.412	80.015	19.989	103.747	19.881	0.219	-0.014
12.000	116.401	80.016	19.993	103.753	19.880	0.326	-0.038
12.500	116.395	80.017	19.994	103.760	19.878	0.439	-0.032
13.000	116.370	80.014	19.995	103.771	19.878	0.443	-0.024
13.500	116.400	80.014	19.993	103.781	19.876	0.579	-0.013
14.000	116.385	80.015	19.989	103.788	19.874	0.765	0.010
14.500	116.364	80.015	19.994	103.796	19.873	0.822	-0.011
15.001	116.358	80.013	20.000	103.805	19.877	0.513	-0.032
15.501	116.392	80.013	19.992	103.815	19.872	0.854	0.001
16.000	116.366	80.016	19.992	103.827	19.870	0.987	0.018
16.500	116.453	80.017	19.994	103.834	19.869	1.089	0.034
17.000	116.405	80.013	19.999	103.843	19.872	0.871	0.050
17.500	116.458	80.014	19.990	103.850	19.866	1.278	0.022
18.000	116.466	80.017	19.993	103.856	19.867	1.235	0.033
18.500	116.507	80.012	19.996	103.859	19.866	1.273	0.056
19.000	116.462	80.012	19.997	103.866	19.867	1.206	0.022
19.500	116.575	80.019	19.992	103.846	19.866	1.316	0.031
20.000	116.568	80.019	19.991	103.822	19.868	1.159	0.087
20.500	116.551	80.012	19.993	103.798	19.867	1.204	0.042
21.000	116.615	80.013	19.995	103.778	19.869	1.077	0.011
21.500	116.617	80.013	19.994	103.761	19.867	1.237	0.057
22.001	116.632	80.012	19.990	103.765	19.865	1.365	0.042
22.501	116.673	80.014	19.995	103.776	19.867	1.202	0.037
23.000	116.701	80.015	19.992	103.807	19.869	1.119	0.062
23.500	116.706	80.014	19.994	103.839	19.867	1.223	0.051
24.000	116.736	80.012	19.992	103.855	19.867	1.195	0.034
24.500	116.803	80.013	19.993	103.865	19.863	1.511	0.066
25.000	116.863	80.018	19.994	103.874	19.862	1.562	0.112
25.500	116.827	80.014	19.989	103.865	19.864	1.450	0.075
26.000	116.857	80.016	19.992	103.853	19.864	1.462	0.009
26.500	116.912	80.014	19.993	103.854	19.866	1.306	0.040
27.000	116.915	80.012	19.998	103.860	19.864	1.424	0.071
27.500	116.972	80.016	19.992	103.865	19.863	1.473	0.059
28.000	117.015	80.014	19.994	103.867	19.868	1.178	0.080
28.500	117.069	80.014	19.994	103.867	19.864	1.399	0.099
29.000	117.085	80.015	19.994	103.869	19.864	1.453	0.083
29.500	117.157	80.014	19.992	103.869	19.864	1.407	0.079
30.000	117.192	80.016	19.993	103.872	19.869	1.085	0.098
30.500	117.298	80.019	19.992	103.871	19.864	1.449	0.124
31.000	117.327	80.014	19.998	103.870	19.865	1.364	0.138
31.500	117.340	80.016	19.994	103.867	19.864	1.424	0.088
32.000	117.420	80.016	19.995	103.867	19.866	1.318	0.067
32.500	117.441	80.017	19.993	103.863	19.864	1.451	0.097
33.000	117.535	80.013	19.992	103.856	19.867	1.239	0.108
33.500	117.547	80.013	19.996	103.850	19.864	1.417	0.110
34.000	117.625	80.021	19.992	103.844	19.863	1.470	0.098
34.500	117.676	80.016	19.992	103.839	19.869	1.059	0.110
35.000	117.737	80.020	19.992	103.837	19.866	1.322	0.120
35.501	117.781	80.016	19.996	103.836	19.865	1.362	0.108
36.001	117.839	80.018	19.990	103.835	19.866	1.298	0.104
36.501	117.870	80.020	19.991	103.840	19.863	1.484	0.095
37.000	117.945	80.017	19.993	103.844	19.864	1.463	0.097
37.500	118.012	80.020	19.992	103.845	19.863	1.505	0.124
38.000	118.073	80.017	19.991	103.847	19.860	1.706	0.135
38.500	118.054	80.010	19.997	103.855	19.862	1.573	0.085
39.000	118.185	80.017	19.991	103.861	19.864	1.433	0.077
39.500	118.274	80.017	19.989	103.869	19.860	1.728	0.166
40.000	118.285	80.017	19.991	103.880	19.862	1.590	0.160
40.500	118.371	80.012	20.001	103.890	19.860	1.726	0.099
41.000	118.461	80.017	19.991	103.890	19.858	1.874	0.137
41.500	118.556	80.019	19.994	103.894	19.857	1.941	0.180
42.000	118.610	80.019	19.995	103.894	19.856	1.977	0.167
42.500	118.723	80.015	19.994	103.894	19.860	1.717	0.158
43.000	118.763	80.016	19.993	103.897	19.854	2.153	0.160
43.500	118.871	80.015	19.993	103.904	19.857	1.893	0.151
44.000	118.949	80.017	19.994	103.905	19.854	2.147	0.167
44.500	119.015	80.017	19.991	103.904	19.853	2.210	0.164
45.000	119.092	80.013	19.992	103.907	19.857	1.918	0.143
45.500	119.147	80.011	19.997	103.909	19.854	2.151	0.138
46.000	119.244	80.013	19.993	103.915	19.852	2.269	0.142
46.500	119.342	80.020	19.991	103.923	19.849	2.447	0.173
47.001	119.404	80.011	19.998	103.931	19.846	2.697	0.178
47.501	119.510	80.013	19.993	103.937	19.849	2.492	0.164
48.000	119.612	80.017	19.990	103.943	19.848	2.528	0.188
48.500	119.731	80.015	19.994	103.944	19.846	2.672	0.214
49.000	119.803	80.015	19.992	103.942	19.848	2.517	0.205
49.501	119.935	80.016	19.992	103.943	19.848	2.561	0.197
50.001	120.001	80.014	19.992	103.944	19.849	2.451	0.201
50.500	120.098	80.008	19.991	103.944	19.848	2.551	0.181
51.000	120.235	80.013	19.995	103.943	19.846	2.661	0.198
51.500	120.276	80.009	19.992	103.945	19.845	2.725	0.206
52.000	120.404	80.016	19.994	103.945	19.850	2.430	0.173
52.500	120.505	80.009	19.993	103.946	19.843	2.877	0.199
53.000	120.631	80.015	19.994	103.947	19.846	2.718	0.229
53.500	120.731	80.012	19.995	103.953	19.847	2.595	0.227
54.000	120.872	80.013	19.996	103.956	19.843	2.869	0.233
54.500	120.974	80.014	19.990	103.956	19.849	2.498	0.242
55.000	121.068	80.011	19.993	103.958	19.849	2.449	0.220
55.501	121.180	80.013	19.992	103.958	19.849	2.466	0.202
56.001	121.318	80.012	19.991	103.952	19.848	2.534	0.228
56.501	121.459	80.012	19.996	103.953	19.849	2.454	0.264
57.000	121.549	80.014	19.992	103.954	19.843	2.863	0.254
57.500	121.663	80.013	19.996	103.953	19.848	2.573	0.217
58.000	121.790	80.012	19.990	103.951	19.845	2.765	0.223
58.500	121.911	80.014	19.990	103.952	19.847	2.587	0.245
59.000	122.073	80.015	20.000	103.954	19.844	2.820	0.266
59.500	122.201	80.013	19.993	103.958	19.847	2.608	0.287
60.000	122.306	80.013	19.994	103.960	19.847	2.594	0.261
60.500	122.424	80.014	19.994	103.960	19.844	2.843	0.228
61.000	122.537	80.013	19.995	103.963	19.844	2.803	0.227
61.500	122.687	80.014	19.996	103.958	19.846	2.663	0.247
62.000	122.861	80.013	19.993	103.952	19.840	3.135	0.293
62.500	122.982	80.013	19.993	103.951	19.839	3.176	0.309
63.000	123.126	80.014	19.994	103.956	19.844	2.822	0.280
63.500	123.286	80.014	19.995	103.957	19.845	2.724	0.285
64.000	123.401	80.015	19.994	103.956	19.846	2.693	0.290
64.500	123.510	80.014	19.993	103.955	19.846	2.665	0.250
65.000	123.730	80.014	19.993	103.955	19.845	2.777	0.276
65.500	123.764	80.014	19.994	103.952	19.843	2.891	0.292
66.000	124.003	80.013	19.994	103.950	19.845	2.741	0.263
66.500	124.118	80.013	19.993	103.950	19.843	2.868	0.313
67.000	124.378	80.012	19.997	103.951	19.842	2.989	0.364
67.500	124.450	80.014	19.992	103.949	19.845	2.754	0.354
68.000	124.443	80.015	19.992	103.947	19.843	2.917	0.198
68.500	124.747	80.016	19.999	103.944	19.842	2.934	0.181
69.000	124.954	80.014	19.994	103.943	19.841	3.057	0.404
69.500	125.063	80.014	19.994	103.943	19.844	2.807	0.414
70.000	125.300	80.009	20.004	103.943	19.844	2.841	0.331
70.500	125.437	80.013	19.995	103.942	19.843	2.893	0.360
71.000	125.605	80.015	19.992	103.942	19.841	3.029	0.339
71.500	125.764	80.016	19.993	103.944	19.842	2.984	0.315
72.000	125.878	80.015	19.993	103.946	19.843	2.881	0.300
72.501	125.950	80.012	19.996	103.952	19.844	2.824	0.229
73.001	126.133	80.012	19.994	103.955	19.841	3.027	0.220
73.500	126.231	80.014	19.992	103.957	19.844	2.809	0.269
74.001	126.419	80.013	19.993	103.962	19.844	2.851	0.284
74.501	126.570	80.016	19.993	103.966	19.842	2.936	0.312
75.001	126.738	80.016	19.992	103.965	19.839	3.207	0.329
75.501	126.912	80.015	19.990	103.971	19.842	2.965	0.331
76.000	127.002	80.005	20.004	103.977	19.840	3.117	0.303
76.500	127.305	80.014	19.994	103.974	19.839	3.179	0.329
77.000	127.459	80.013	19.994	103.968	19.840	3.136	0.425
77.501	127.660	80.012	19.994	103.963	19.840	3.092	0.406
78.001	127.688	80.012	19.995	103.958	19.839	3.177	0.292
78.500	127.953	80.014	19.995	103.950	19.843	2.895	0.261
79.000	128.192	80.014	19.991	103.947	19.844	2.802	0.399
79.500	128.279	80.010	19.996	103.948	19.842	2.957	0.415
80.000	128.471	80.012	19.993	103.951	19.844	2.844	0.303
80.500	128.527	80.013	19.993	103.957	19.841	3.039	0.264
81.000	128.736	80.013	19.993	103.964	19.841	3.029	0.256
81.500	129.023	80.006	19.993	103.969	19.842	2.972	0.380
82.001	129.122	80.015	19.994	103.970	19.842	2.997	0.441
82.501	129.289	80.013	19.993	103.974	19.841	3.024	0.326
83.000	129.405	80.012	19.993	103.974	19.840	3.130	0.275
83.500	129.600	80.013	19.994	103.975	19.841	3.024	0.297
84.000	129.868	80.015	19.993	103.976	19.836	3.367	0.386
84.500	129.985	80.012	19.997	103.980	19.843	2.872	0.424
85.000	130.122	80.013	19.994	103.977	19.841	3.016	0.320
85.501	130.380	80.014	19.994	103.978	19.841	3.065	0.325
86.001	130.526	80.014	19.995	103.975	19.838	3.226	0.399
86.500	130.738	80.012	19.995	103.977	19.842	2.955	0.381
87.001	130.895	80.016	19.993	103.979	19.838	3.243	0.364
87.501	131.095	80.012	19.996	103.983	19.839	3.173	0.363
88.000	131.298	80.014	19.994	103.981	19.844	2.815	0.380
88.500	131.451	80.011	19.996	103.983	19.843	2.883	0.380
89.000	131.592	80.016	19.993	103.981	19.842	2.963	0.325
89.500	131.837	80.012	20.002	103.981	19.843	2.931	0.339
90.001	132.011	80.014	19.992	103.978	19.840	3.120	0.403
90.501	132.200	80.014	19.996	103.979	19.843	2.929	0.391
91.000	132.360	80.014	19.993	103.979	19.841	3.012	0.356
91.500	132.595	80.014	19.994	103.979	19.844	2.853	0.372
92.000	132.759	80.015	19.992	103.979	19.840	3.095	0.397
92.501	132.973	80.016	19.994	103.981	19.841	3.061	0.388
93.001	133.138	80.017	19.994	103.978	19.840	3.124	0.379
93.500	133.337	80.016	19.993	103.979	19.839	3.181	0.371
94.000	133.548	80.016	19.992	103.979	19.840	3.090	0.387
94.500	133.744	80.016	19.992	103.980	19.841	3.047	0.409
95.000	133.962	80.016	19.992	103.980	19.840	3.083	0.411
95.500	134.132	80.016	19.991	103.981	19.839	3.183	0.401
96.000	134.365	80.016	19.994	103.976	19.839	3.189	0.396
96.501	134.531	80.020	19.994	103.975	19.841	3.062	0.401
97.001	134.749	80.013	19.995	103.973	19.838	3.265	0.391
97.501	134.932	80.017	19.992	103.973	19.838	3.253	0.392
98.001	135.155	80.016	19.991	103.975	19.837	3.323	0.404
98.501	135.324	80.014	19.992	103.980	19.839	3.189	0.399
99.001	135.510	80.016	19.994	103.982	19.840	3.139	0.374
99.501	135.766	80.015	19.992	103.983	19.838	3.268	0.398
100.000	135.960	80.014	19.989	103.984	19.838	3.225	0.446
100.500	136.128	80.016	19.993	103.984	19.838	3.232	0.406
101.000	136.385	80.016	19.995	103.981	19.839	3.160	0.393
101.500	136.576	80.013	19.994	103.975	19.837	3.340	0.436
102.000	136.794	80.018	19.993	103.972	19.838	3.243	0.428
102.500	136.952	80.014	19.997	103.973	19.836	3.384	0.393
103.000	137.160	80.011	19.990	103.972	19.839	3.175	0.371
103.500	137.434	80.016	19.994	103.977	19.838	3.211	0.424
104.000	137.596	80.015	19.991	103.983	19.837	3.333	0.459
104.500	137.859	80.015	19.993	103.986	19.837	3.296	0.431
105.000	138.032	80.014	19.994	103.985	19.836	3.399	0.430
105.500	138.246	80.014	19.996	103.986	19.839	3.190	0.411
106.000	138.474	80.017	19.993	103.985	19.840	3.111	0.415
106.500	138.688	80.014	19.995	103.985	19.840	3.090	0.442
107.000	138.855	80.015	19.994	103.985	19.841	3.016	0.412
107.501	139.080	80.016	19.993	103.984	19.838	3.238	0.387
108.001	139.291	80.013	19.993	103.984	19.839	3.210	0.414
108.500	139.487	80.015	19.994	103.978	19.840	3.115	0.421
109.000	139.730	80.013	19.994	103.977	19.836	3.394	0.423
109.500	139.942	80.014	19.994	103.978	19.836	3.383	0.447
110.000	140.157	80.015	19.994	103.980	19.835	3.441	0.441
110.500	140.368	80.016	19.992	103.980	19.837	3.314	0.427
111.000	140.608	80.014	19.994	103.986	19.838	3.279	0.439
111.501	140.796	80.017	19.994	103.981	19.836	3.408	0.440
112.001	141.032	80.015	19.993	103.978	19.837	3.325	0.425
112.501	141.254	80.015	19.993	103.975	19.840	3.080	0.441
113.001	141.503	80.014	19.993	103.975	19.837	3.304	0.465
113.501	141.704	80.016	19.993	103.973	19.838	3.279	0.461
114.001	141.942	80.015	19.994	103.977	19.837	3.332	0.444
114.500	142.113	80.015	19.993	103.975	19.837	3.286	0.424
115.000	142.352	80.015	19.992	103.976	19.839	3.167	0.410
115.500	142.582	80.014	19.994	103.972	19.841	3.063	0.440
116.000	142.794	80.020	19.992	103.973	19.837	3.304	0.455
116.500	143.017	80.016	19.992	103.973	19.837	3.325	0.438
117.001	143.289	80.015	19.994	103.975	19.836	3.353	0.465
117.501	143.503	80.015	19.993	103.976	19.837	3.348	0.491
118.001	143.719	80.015	19.992	103.979	19.837	3.306	0.458
118.500	143.933	80.019	19.994	103.982	19.835	3.427	0.430
119.000	144.156	80.019	19.994	103.992	19.838	3.275	0.433
119.500	144.427	80.017	19.994	103.998	19.836	3.389	0.465
120.000	144.619	80.014	19.994	103.999	19.839	3.169	0.479
120.500	144.857	80.015	19.994	103.999	19.837	3.332	0.446
121.001	145.090	80.014	19.993	103.993	19.838	3.256	0.450
121.501	145.357	80.016	19.993	103.981	19.836	3.355	0.486
122.000	145.550	80.017	19.993	103.975	19.837	3.343	0.480
122.500	145.790	80.016	19.993	103.974	19.840	3.082	0.446
123.000	146.004	80.016	19.993	103.975	19.837	3.341	0.444
123.500	146.279	80.017	19.992	103.976	19.837	3.305	0.472
124.000	146.475	80.014	19.993	103.973	19.837	3.284	0.480
124.500	146.739	80.015	19.993	103.968	19.840	3.076	0.466
125.000	146.900	80.014	19.993	103.960	19.841	3.009	0.442
125.500	147.149	80.016	19.994	103.954	19.838	3.218	0.417
126.000	147.374	80.015	19.993	103.954	19.841	3.017	0.442
126.500	147.614	80.016	19.992	103.968	19.839	3.167	0.469
127.000	147.828	80.015	19.993	103.975	19.839	3.152	0.460
127.500	148.099	80.015	19.994	103.975	19.840	3.087	0.469
128.000	148.319	80.015	19.992	103.973	19.837	3.286	0.488
128.500	148.581	80.014	19.993	103.973	19.838	3.275	0.487
129.000	148.806	80.013	19.994	103.963	19.837	3.332	0.485
129.500	149.065	80.015	19.994	103.958	19.840	3.108	0.485
130.000	149.257	80.014	19.993	103.960	19.838	3.267	0.467
130.500	149.511	80.013	19.994	103.965	19.844	2.858	0.448
131.000	149.734	80.013	19.992	103.964	19.841	3.033	0.462
131.500	149.951	80.013	19.995	103.961	19.842	2.955	0.459
132.000	150.221	80.015	19.991	103.962	19.843	2.906	0.463
132.500	150.439	80.014	19.993	103.962	19.844	2.797	0.487
133.000	150.675	80.013	19.995	103.958	19.843	2.930	0.471
133.500	150.917	80.012	19.994	103.958	19.842	2.951	0.466
134.000	151.139	80.015	19.992	103.956	19.844	2.845	0.471
134.500	151.382	80.013	19.994	103.954	19.840	3.106	0.464
135.000	151.646	80.013	19.993	103.951	19.839	3.186	0.486
135.500	151.870	80.014	19.993	103.948	19.836	3.358	0.498
136.000	152.137	80.014	19.993	103.945	19.838	3.233	0.489
136.500	152.377	80.012	19.994	103.949	19.834	3.520	0.499
137.000	152.583	80.013	19.994	103.948	19.837	3.300	0.477
137.500	152.824	80.014	19.994	103.948	19.840	3.110	0.447
138.000	153.098	80.015	19.994	103.954	19.840	3.112	0.482
138.500	153.327	80.015	19.994	103.957	19.839	3.140	0.509
139.000	153.532	80.016	19.992	103.953	19.836	3.387	0.468
139.500	153.807	80.013	19.996	103.956	19.839	3.142	0.457
140.000	154.063	80.012	19.996	103.958	19.836	3.398	0.505
140.500	154.279	80.012	19.996	103.955	19.837	3.334	0.501
141.000	154.524	80.013	19.993	103.957	19.838	3.239	0.467
141.500	154.803	80.015	19.994	103.961	19.838	3.246	0.493
142.000	154.986	80.013	19.993	103.962	19.836	3.409	0.493
142.500	155.225	80.010	19.992	103.959	19.836	3.349	0.442
143.000	155.456	80.018	19.992	103.959	19.835	3.423	0.446
143.500	155.741	80.014	19.992	103.956	19.834	3.555	0.493
144.000	155.980	80.014	19.994	103.952	19.838	3.220	0.520
144.500	156.240	80.015	19.993	103.949	19.839	3.167	0.512
145.000	156.415	80.014	19.995	103.949	19.837	3.281	0.467
145.500	156.805	80.013	19.994	103.947	19.839	3.167	0.500
146.000	156.927	80.012	19.993	103.947	19.836	3.417	0.538
146.500	157.287	80.014	19.994	103.952	19.835	3.449	0.497
147.000	157.336	80.016	19.993	103.955	19.835	3.479	0.446
147.500	157.833	80.013	19.995	103.959	19.832	3.635	0.477
148.000	158.019	80.014	19.994	103.960	19.834	3.491	0.614
148.500	158.134	80.013	19.994	103.959	19.835	3.425	0.492
149.000	158.379	80.013	19.994	103.953	19.836	3.392	0.331
149.500	158.513	80.013	19.995	103.953	19.833	3.595	0.370
150.000	158.983	80.015	19.994	103.949	19.834	3.527	0.491
150.500	159.069	80.012	19.997	103.950	19.833	3.589	0.580
151.000	159.541	80.013	19.993	103.949	19.836	3.402	0.558
151.500	159.787	80.015	19.993	103.949	19.835	3.470	0.638
152.000	159.998	80.013	19.993	103.946	19.832	3.637	0.587
152.500	160.199	80.014	19.994	103.948	19.836	3.374	0.434
153.000	160.511	80.013	19.994	103.947	19.835	3.488	0.462
153.500	160.730	80.014	19.991	103.948	19.832	3.668	0.522
154.000	160.735	80.012	19.995	103.951	19.830	3.834	0.378
154.500	161.107	80.014	19.995	103.954	19.833	3.612	0.301
155.000	161.315	80.014	19.991	103.951	19.833	3.590	0.479
155.500	161.603	80.011	19.995	103.951	19.833	3.571	0.538
156.001	161.843	80.014	19.994	103.951	19.836	3.391	0.512
156.500	162.096	80.015	19.995	103.951	19.835	3.487	0.510
157.000	162.343	80.013	19.995	103.948	19.834	3.542	0.497
157.500	162.558	80.011	19.993	103.948	19.835	3.457	0.481
158.000	162.862	80.011	19.992	103.948	19.834	3.529	0.490
158.500	163.034	80.012	19.996	103.953	19.833	3.574	0.498
159.000	163.344	80.013	19.996	103.950	19.836	3.396	0.480
159.500	163.591	80.013	19.994	103.951	19.832	3.669	0.519
160.000	163.831	80.012	19.995	103.951	19.834	3.533	0.522
160.500	164.069	80.012	19.996	103.951	19.832	3.694	0.483
161.000	164.305	80.011	19.993	103.948	19.832	3.643	0.476
161.500	164.609	80.013	19.994	103.947	19.834	3.491	0.507
162.000	164.838	80.010	20.001	103.949	19.832	3.633	0.536
162.500	165.091	80.015	19.990	103.954	19.834	3.533	0.508
163.000	165.365	80.014	19.994	103.962	19.834	3.548	0.505
163.500	165.580	80.015	19.992	103.965	19.831	3.743	0.508
164.000	165.857	80.013	19.999	103.967	19.832	3.675	0.491
164.500	166.108	80.012	19.995	103.968	19.831	3.747	0.510
165.000	166.370	80.013	19.994	103.965	19.832	3.646	0.520
165.500	166.622	80.012	19.995	103.957	19.833	3.599	0.514
166.000	166.830	80.008	19.999	103.953	19.833	3.586	0.487
166.500	167.135	80.012	19.996	103.953	19.832	3.644	0.486
167.000	167.321	80.012	19.995	103.954	19.832	3.695	0.502
167.500	167.615	80.015	19.992	103.954	19.833	3.565	0.486
168.000	167.831	80.012	19.992	103.955	19.830	3.783	0.495
168.500	168.101	80.014	19.995	103.954	19.830	3.804	0.497
169.000	168.350	80.012	19.993	103.953	19.828	3.944	0.502
169.500	168.629	80.013	19.995	103.950	19.829	3.864	0.524
170.000	168.876	80.017	19.991	103.949	19.831	3.764	0.528
170.500	169.118	80.013	19.992	103.955	19.831	3.739	0.508
171.000	169.355	80.015	19.993	103.962	19.831	3.707	0.484
171.500	169.615	80.017	19.991	103.966	19.829	3.896	0.488
172.000	169.889	80.019	19.991	103.967	19.828	3.917	0.515
172.500	170.111	80.013	19.993	103.968	19.831	3.726	0.515
