Sample ID:	C:\MCC\MCC Cal\Test\PVC_R06_MCC_30K_min_211014_R2.txt
Sample Weight (mg):	4.39
Heating Rate (C/s):	0.5
Combustor Temp (C):	900
N2 Flow Rate (cc/min):	80
O2 Flow Rate (cc/min):	20
Calibration File:	C:\MCC\MCC Cal\Coeff1 JN10440_30_210304.txt.txt
T Correction Coefficients:	0	1.024463	0
Time Shift (s):	14
*
Time (s)	Temperature (C)	N2 flow rate (cc/min)	O2 flow rate (cc/min)	Flow Rate (cc/min)	Oxygen (%)	HRR (W/g)	Heating rate (C/s)
0.000	107.791	79.991	19.994	102.707	20.421	-0.095	-0.032
0.500	107.743	79.992	19.996	102.709	20.420	-0.075	-0.023
1.000	107.757	79.991	19.998	102.707	20.417	0.136	-0.028
1.500	107.765	79.992	19.994	102.708	20.421	-0.105	-0.006
2.000	107.754	79.992	19.997	102.711	20.419	0.040	0.009
2.500	107.784	79.991	19.996	102.710	20.415	0.350	0.008
3.000	107.767	79.991	19.995	102.709	20.417	0.156	0.016
3.500	107.806	79.992	19.997	102.709	20.419	0.059	0.017
4.000	107.801	79.993	19.995	102.708	20.418	0.093	0.028
4.500	107.769	79.991	19.995	102.707	20.415	0.283	-0.002
5.000	107.756	79.990	19.998	102.706	20.417	0.156	-0.041
5.500	107.706	79.991	19.995	102.705	20.419	0.043	-0.054
6.000	107.754	79.994	19.993	102.707	20.419	0.026	-0.032
6.500	107.753	79.991	19.996	102.711	20.421	-0.130	0.023
7.000	107.742	79.989	19.996	102.711	20.417	0.148	0.017
7.500	107.759	79.991	19.996	102.713	20.415	0.292	-0.004
8.000	107.773	79.993	19.996	102.713	20.418	0.120	0.018
8.500	107.753	79.991	19.996	102.712	20.419	0.002	0.012
9.000	107.774	79.991	19.995	102.712	20.417	0.186	-0.003
9.500	107.767	79.989	19.996	102.712	20.419	0.055	0.008
10.000	107.756	79.992	19.998	102.713	20.418	0.103	-0.001
10.500	107.751	79.990	19.996	102.713	20.417	0.199	-0.017
11.000	107.751	79.992	19.996	102.715	20.419	0.026	-0.011
11.500	107.754	79.992	19.998	102.718	20.420	-0.041	-0.001
12.000	107.745	79.992	19.997	102.721	20.418	0.095	-0.001
12.500	107.747	79.990	19.996	102.728	20.417	0.186	-0.007
13.000	107.766	79.991	19.994	102.736	20.414	0.393	0.007
13.500	107.727	79.991	19.996	102.743	20.413	0.462	0.001
14.000	107.735	79.988	19.998	102.749	20.411	0.598	-0.025
14.500	107.743	79.990	19.999	102.755	20.409	0.778	-0.008
15.000	107.722	79.992	19.995	102.762	20.414	0.395	0.001
15.500	107.750	79.993	19.995	102.769	20.408	0.815	-0.003
16.000	107.754	79.994	19.996	102.778	20.408	0.855	0.019
16.500	107.789	79.993	19.995	102.789	20.407	0.912	0.036
17.000	107.771	79.991	19.995	102.804	20.406	0.963	0.028
17.500	107.787	79.991	19.995	102.812	20.401	1.317	0.008
18.000	107.802	79.993	19.994	102.818	20.404	1.119	0.015
18.500	107.813	79.991	19.993	102.817	20.401	1.311	0.029
19.000	107.819	79.992	19.995	102.814	20.400	1.443	0.021
19.500	107.838	79.991	19.996	102.812	20.402	1.247	0.021
20.000	107.870	79.992	19.995	102.812	20.402	1.247	0.038
20.500	107.874	79.995	19.993	102.815	20.397	1.596	0.044
21.000	107.862	79.993	19.996	102.824	20.401	1.338	0.014
21.500	107.921	79.995	19.987	102.831	20.398	1.531	0.019
22.000	107.927	79.991	19.997	102.835	20.394	1.833	0.056
22.500	107.948	79.994	19.995	102.835	20.394	1.839	0.046
23.000	107.999	79.986	19.995	102.835	20.395	1.780	0.049
23.500	108.038	79.995	19.991	102.835	20.393	1.902	0.080
24.000	108.039	79.991	19.995	102.842	20.394	1.855	0.065
24.500	108.092	79.997	19.993	102.847	20.395	1.798	0.047
25.000	108.128	79.994	19.992	102.855	20.393	1.898	0.071
25.500	108.136	79.992	19.998	102.863	20.391	2.054	0.067
26.000	108.202	79.990	20.000	102.869	20.390	2.171	0.059
26.500	108.203	79.994	19.994	102.868	20.393	1.959	0.070
27.000	108.259	79.992	19.990	102.869	20.393	1.910	0.062
27.500	108.273	79.993	19.997	102.869	20.394	1.882	0.064
28.000	108.308	79.992	19.997	102.868	20.393	1.912	0.059
28.500	108.399	79.996	19.992	102.872	20.389	2.238	0.087
29.000	108.398	79.988	19.997	102.879	20.388	2.309	0.108
29.500	108.476	79.991	19.990	102.886	20.387	2.358	0.084
30.000	108.533	79.994	19.992	102.893	20.387	2.332	0.106
30.500	108.574	79.990	19.994	102.902	20.387	2.374	0.116
31.000	108.615	79.995	19.994	102.906	20.382	2.695	0.090
31.500	108.678	79.993	19.997	102.907	20.382	2.711	0.093
32.000	108.697	79.994	19.987	102.907	20.384	2.553	0.093
32.500	108.793	79.994	19.996	102.909	20.383	2.654	0.098
33.000	108.881	79.992	19.994	102.909	20.382	2.733	0.149
33.500	108.911	79.990	19.994	102.909	20.384	2.577	0.151
34.000	108.995	79.988	19.995	102.910	20.381	2.802	0.116
34.500	109.043	79.989	19.996	102.914	20.382	2.729	0.123
35.000	109.114	79.994	19.997	102.913	20.381	2.831	0.126
35.500	109.185	79.990	19.996	102.914	20.380	2.892	0.131
36.000	109.280	79.991	19.997	102.914	20.377	3.105	0.153
36.500	109.341	79.988	19.992	102.914	20.380	2.860	0.161
37.000	109.436	79.992	19.993	102.911	20.377	3.111	0.156
37.500	109.467	79.991	19.994	102.911	20.378	3.012	0.141
38.000	109.556	79.988	19.998	102.912	20.379	2.975	0.123
38.500	109.655	79.997	19.992	102.911	20.377	3.127	0.154
39.000	109.772	79.991	19.993	102.912	20.376	3.170	0.202
39.500	109.856	79.995	19.995	102.912	20.376	3.158	0.208
40.000	109.915	79.988	19.997	102.911	20.377	3.075	0.172
40.500	109.996	79.991	19.994	102.911	20.378	3.038	0.142
41.000	110.113	79.991	19.995	102.915	20.374	3.320	0.169
41.500	110.190	79.993	19.995	102.915	20.374	3.322	0.196
42.000	110.298	79.990	19.994	102.915	20.376	3.148	0.190
42.500	110.398	79.989	19.996	102.915	20.376	3.172	0.196
43.000	110.471	79.991	19.995	102.917	20.373	3.401	0.190
43.500	110.603	79.991	19.995	102.916	20.376	3.160	0.189
44.000	110.659	79.990	19.994	102.915	20.373	3.369	0.196
44.500	110.803	79.989	19.994	102.920	20.374	3.322	0.194
45.000	110.884	79.991	19.995	102.922	20.374	3.343	0.213
45.500	110.952	79.991	19.995	102.927	20.373	3.369	0.187
46.000	111.054	79.989	19.994	102.932	20.374	3.314	0.159
46.500	111.193	79.992	19.996	102.939	20.375	3.264	0.205
47.000	111.297	79.992	19.994	102.939	20.373	3.412	0.242
47.501	111.410	79.990	19.995	102.944	20.376	3.174	0.230
48.001	111.492	79.991	19.995	102.943	20.373	3.371	0.207
48.500	111.595	79.994	19.994	102.943	20.372	3.457	0.190
49.000	111.721	79.991	19.997	102.943	20.373	3.420	0.206
49.500	111.850	79.993	19.994	102.945	20.372	3.491	0.242
50.000	111.947	79.990	19.995	102.945	20.371	3.509	0.241
50.500	112.054	79.992	19.995	102.947	20.369	3.692	0.215
51.000	112.172	79.993	19.996	102.947	20.369	3.651	0.215
51.500	112.323	79.993	19.995	102.947	20.368	3.732	0.247
52.000	112.407	79.993	20.000	102.948	20.371	3.525	0.252
52.500	112.534	79.992	19.995	102.948	20.370	3.594	0.223
53.000	112.670	79.992	19.996	102.948	20.371	3.570	0.237
53.500	112.797	79.991	19.998	102.948	20.373	3.408	0.263
54.000	112.936	79.993	19.993	102.949	20.372	3.477	0.264
54.500	113.043	79.992	19.991	102.949	20.368	3.756	0.256
55.000	113.195	79.991	19.997	102.952	20.367	3.819	0.253
55.500	113.322	79.991	19.994	102.952	20.367	3.833	0.269
56.000	113.457	79.993	19.994	102.953	20.368	3.762	0.270
56.500	113.578	79.992	19.996	102.952	20.369	3.716	0.259
57.000	113.745	79.991	19.996	102.952	20.372	3.440	0.272
57.500	113.875	79.991	19.994	102.951	20.368	3.781	0.292
58.000	113.991	79.998	19.989	102.952	20.369	3.685	0.272
58.500	114.155	79.991	19.999	102.957	20.371	3.541	0.263
59.000	114.284	79.990	19.996	102.960	20.368	3.765	0.286
59.500	114.452	79.992	19.996	102.962	20.368	3.744	0.295
60.000	114.590	79.994	19.987	102.963	20.367	3.844	0.301
60.501	114.727	79.991	19.998	102.964	20.366	3.895	0.290
61.001	114.859	79.989	19.997	102.958	20.368	3.761	0.272
61.501	115.068	79.992	19.995	102.954	20.370	3.574	0.305
62.001	115.204	79.993	19.994	102.951	20.368	3.767	0.343
62.500	115.339	79.991	19.997	102.951	20.370	3.641	0.308
63.000	115.470	79.989	19.995	102.949	20.367	3.797	0.269
63.500	115.619	79.991	19.995	102.950	20.369	3.684	0.273
64.000	115.783	79.990	19.995	102.951	20.368	3.728	0.296
64.500	115.938	79.990	19.997	102.951	20.369	3.704	0.316
65.000	116.055	79.990	19.996	102.951	20.367	3.827	0.296
65.500	116.231	79.991	19.997	102.952	20.367	3.842	0.283
66.000	116.411	79.991	19.996	102.951	20.370	3.605	0.324
66.501	116.579	79.989	19.999	102.951	20.371	3.550	0.352
67.001	116.716	79.990	19.997	102.950	20.373	3.410	0.327
67.500	116.918	79.992	19.996	102.950	20.371	3.558	0.322
68.000	117.058	79.994	19.995	102.950	20.368	3.747	0.340
68.500	117.205	79.991	19.997	102.951	20.368	3.736	0.314
69.000	117.384	79.991	19.994	102.950	20.367	3.830	0.307
69.500	117.546	79.984	20.001	102.952	20.368	3.785	0.334
70.000	117.701	79.986	19.999	102.953	20.366	3.864	0.329
70.500	117.889	79.991	19.995	102.953	20.366	3.884	0.330
71.000	118.055	79.991	19.998	102.954	20.365	3.951	0.348
71.500	118.224	79.993	19.995	102.958	20.368	3.745	0.344
72.000	118.372	79.991	19.996	102.959	20.365	4.009	0.326
72.500	118.570	79.991	19.998	102.960	20.367	3.854	0.332
73.001	118.732	79.991	19.996	102.962	20.366	3.909	0.353
73.501	118.899	79.991	19.997	102.962	20.365	4.010	0.345
74.000	119.049	79.992	19.995	102.959	20.366	3.903	0.324
74.500	119.236	79.991	19.997	102.957	20.365	3.984	0.327
75.000	119.415	79.991	19.995	102.953	20.368	3.747	0.351
75.501	119.612	79.993	19.996	102.953	20.367	3.820	0.371
76.001	119.758	79.990	19.996	102.951	20.367	3.795	0.359
76.500	119.916	79.993	19.996	102.954	20.365	3.962	0.323
77.000	120.136	79.991	19.999	102.961	20.365	3.960	0.341
77.500	120.325	79.988	19.998	102.964	20.367	3.844	0.394
78.001	120.487	79.989	20.003	102.964	20.363	4.116	0.380
78.501	120.676	79.991	19.997	102.967	20.364	4.014	0.351
79.000	120.894	79.993	19.996	102.965	20.365	3.990	0.379
79.500	121.039	79.993	19.996	102.961	20.366	3.876	0.386
80.000	121.240	79.990	20.003	102.962	20.364	4.020	0.354
80.500	121.419	79.992	19.999	102.960	20.362	4.191	0.363
81.000	121.626	79.995	19.994	102.957	20.363	4.091	0.384
81.500	121.839	79.992	19.996	102.957	20.362	4.187	0.404
82.000	121.998	79.992	19.995	102.960	20.366	3.933	0.396
82.500	122.153	79.992	19.995	102.963	20.363	4.110	0.343
83.000	122.335	79.991	19.996	102.966	20.363	4.136	0.325
83.500	122.556	79.990	19.999	102.967	20.367	3.834	0.370
84.000	122.752	79.993	19.994	102.965	20.366	3.874	0.410
84.500	122.958	79.994	19.995	102.963	20.367	3.860	0.409
85.000	123.144	79.992	19.996	102.958	20.364	4.032	0.397
85.500	123.320	79.993	19.995	102.959	20.365	3.951	0.377
86.000	123.532	79.993	19.995	102.962	20.365	3.945	0.375
86.500	123.702	79.991	19.995	102.961	20.364	4.071	0.385
87.000	123.923	79.992	19.994	102.959	20.363	4.143	0.386
87.500	124.081	79.993	19.995	102.961	20.363	4.132	0.385
88.000	124.293	79.991	19.998	102.960	20.365	3.992	0.375
88.500	124.497	79.990	19.996	102.957	20.366	3.901	0.394
89.000	124.699	79.992	19.995	102.957	20.365	3.966	0.411
89.500	124.936	79.992	19.995	102.957	20.365	3.976	0.422
90.000	125.127	79.991	19.996	102.955	20.365	3.976	0.433
90.500	125.305	79.993	19.996	102.953	20.364	4.055	0.398
91.001	125.497	79.991	19.996	102.953	20.367	3.807	0.370
91.501	125.698	79.993	19.995	102.955	20.363	4.130	0.382
92.000	125.884	79.993	19.996	102.956	20.364	4.022	0.390
92.500	126.098	79.991	19.997	102.954	20.365	3.949	0.394
93.000	126.284	79.992	19.994	102.957	20.363	4.140	0.400
93.500	126.517	79.992	19.995	102.960	20.366	3.864	0.409
94.000	126.669	79.992	19.997	102.960	20.365	3.968	0.402
94.500	126.894	79.991	19.997	102.958	20.365	4.008	0.381
95.000	127.092	79.990	19.997	102.958	20.365	3.990	0.400
95.500	127.356	79.989	19.995	102.956	20.362	4.199	0.443
96.001	127.529	79.991	19.995	102.957	20.364	4.029	0.450
96.501	127.709	79.990	19.996	102.958	20.366	3.929	0.395
97.000	127.931	79.993	19.991	102.961	20.365	3.947	0.377
97.500	128.169	79.994	19.997	102.967	20.366	3.886	0.431
98.000	128.368	79.994	19.997	102.971	20.365	3.953	0.449
98.500	128.572	79.993	19.997	102.968	20.366	3.911	0.420
99.000	128.765	79.994	19.996	102.964	20.362	4.179	0.400
99.500	129.015	79.993	19.997	102.965	20.368	3.779	0.420
100.000	129.218	79.991	19.997	102.965	20.364	4.063	0.448
100.500	129.435	79.992	19.997	102.962	20.362	4.185	0.436
101.000	129.633	79.995	19.995	102.963	20.363	4.146	0.417
101.500	129.848	79.991	19.998	102.963	20.366	3.870	0.414
102.000	130.066	79.993	19.996	102.959	20.367	3.840	0.423
102.500	130.272	79.993	19.998	102.954	20.365	3.988	0.428
103.000	130.486	79.994	19.996	102.954	20.368	3.734	0.422
103.500	130.700	79.994	19.997	102.952	20.364	4.024	0.424
104.000	130.947	79.996	19.995	102.954	20.367	3.842	0.444
104.500	131.117	79.995	19.996	102.960	20.364	4.045	0.439
105.000	131.350	79.994	19.998	102.961	20.364	4.071	0.410
105.500	131.590	79.996	19.998	102.964	20.361	4.266	0.438
106.000	131.802	79.996	19.996	102.970	20.365	3.994	0.462
106.500	132.017	79.994	19.997	102.969	20.365	3.996	0.440
107.000	132.238	79.995	19.995	102.964	20.365	3.951	0.432
107.500	132.450	79.993	19.996	102.961	20.364	4.022	0.434
108.000	132.669	79.993	19.997	102.955	20.362	4.219	0.432
108.500	132.908	79.994	19.995	102.949	20.364	4.067	0.445
109.000	133.113	79.993	19.995	102.948	20.362	4.227	0.451
109.500	133.374	79.995	19.997	102.955	20.364	4.026	0.455
110.000	133.582	79.995	19.997	102.958	20.364	4.061	0.468
110.500	133.771	79.995	19.995	102.959	20.362	4.187	0.433
111.000	134.013	79.994	19.995	102.959	20.361	4.280	0.414
111.501	134.229	79.995	19.993	102.957	20.358	4.463	0.444
112.001	134.459	79.994	19.997	102.955	20.357	4.550	0.452
112.501	134.683	79.994	19.995	102.953	20.360	4.307	0.451
113.000	134.910	79.995	19.994	102.954	20.361	4.262	0.453
113.500	135.137	79.994	19.994	102.956	20.362	4.158	0.452
114.000	135.376	79.993	19.993	102.958	20.362	4.166	0.460
114.500	135.607	79.993	19.995	102.958	20.365	3.992	0.468
115.001	135.809	79.992	19.993	102.958	20.362	4.203	0.452
115.501	136.027	79.992	19.995	102.961	20.362	4.205	0.427
116.000	136.260	79.994	19.995	102.961	20.362	4.205	0.436
116.500	136.499	79.991	19.996	102.962	20.366	3.911	0.461
117.000	136.768	79.993	19.994	102.960	20.363	4.113	0.489
117.500	136.973	79.991	19.996	102.958	20.365	3.947	0.491
118.000	137.177	79.991	19.995	102.954	20.362	4.176	0.442
118.501	137.416	79.992	19.997	102.952	20.362	4.187	0.426
119.001	137.621	79.992	19.996	102.951	20.362	4.195	0.443
119.500	137.861	79.991	19.995	102.951	20.361	4.243	0.445
120.000	138.101	79.994	19.995	102.952	20.364	4.045	0.463
120.500	138.296	79.991	19.996	102.952	20.362	4.184	0.457
121.000	138.568	79.993	19.995	102.953	20.364	4.053	0.451
121.500	138.778	79.991	19.995	102.955	20.367	3.840	0.475
122.000	139.013	79.992	19.994	102.961	20.364	4.032	0.463
122.501	139.250	79.993	19.996	102.963	20.362	4.193	0.459
123.001	139.483	79.992	19.996	102.965	20.363	4.109	0.472
123.500	139.716	79.992	19.995	102.964	20.364	4.055	0.468
124.000	139.940	79.992	19.996	102.960	20.364	4.020	0.461
124.500	140.141	79.991	19.995	102.952	20.363	4.105	0.441
125.000	140.360	79.990	19.995	102.950	20.365	3.972	0.423
125.500	140.636	79.991	19.994	102.949	20.367	3.791	0.458
126.000	140.868	79.991	19.996	102.949	20.367	3.813	0.501
126.500	141.096	79.992	19.996	102.951	20.367	3.823	0.484
127.000	141.334	79.991	19.996	102.952	20.365	4.006	0.464
127.500	141.545	79.991	19.997	102.952	20.363	4.152	0.458
128.000	141.806	79.991	19.995	102.951	20.363	4.091	0.460
128.500	142.043	79.992	19.995	102.952	20.365	3.998	0.485
129.000	142.255	79.992	19.995	102.953	20.361	4.300	0.474
129.500	142.501	79.992	19.995	102.954	20.363	4.154	0.453
130.000	142.745	79.992	19.995	102.954	20.362	4.207	0.474
130.500	142.984	79.992	19.995	102.954	20.363	4.142	0.487
131.000	143.220	79.992	19.996	102.954	20.364	4.065	0.479
131.500	143.456	79.992	19.994	102.953	20.364	4.083	0.474
132.000	143.692	79.992	19.995	102.952	20.365	4.002	0.472
132.500	143.967	79.990	19.997	102.952	20.361	4.233	0.491
133.000	144.163	79.991	19.995	102.952	20.359	4.379	0.491
133.500	144.440	79.993	19.994	102.953	20.363	4.105	0.472
134.000	144.660	79.987	19.994	102.953	20.363	4.095	0.485
134.500	144.922	79.988	19.995	102.952	20.363	4.093	0.490
135.000	145.175	79.991	19.996	102.954	20.365	3.994	0.498
135.500	145.407	79.991	19.995	102.956	20.365	3.969	0.500
136.000	145.639	79.992	19.995	102.955	20.366	3.864	0.475
136.500	145.891	79.990	19.996	102.954	20.360	4.369	0.474
137.000	146.074	79.990	19.995	102.954	20.363	4.132	0.459
137.500	146.393	79.991	19.996	102.952	20.365	3.945	0.468
138.000	146.633	79.991	19.995	102.951	20.364	4.018	0.530
138.500	146.837	79.991	19.995	102.951	20.362	4.193	0.501
139.000	147.080	79.991	19.995	102.951	20.362	4.199	0.445
139.500	147.323	79.991	19.995	102.951	20.361	4.278	0.467
140.000	147.564	79.992	19.995	102.952	20.362	4.205	0.485
140.500	147.813	79.992	19.995	102.952	20.363	4.101	0.487
141.000	148.041	79.991	19.995	102.953	20.363	4.103	0.483
141.500	148.274	79.992	19.995	102.953	20.363	4.118	0.468
142.000	148.547	79.993	19.996	102.953	20.365	4.010	0.483
142.500	148.743	79.991	19.996	102.952	20.365	3.955	0.488
143.000	149.023	79.991	19.995	102.953	20.369	3.685	0.473
143.500	149.249	79.992	19.996	102.954	20.367	3.836	0.491
144.000	149.468	79.992	19.995	102.954	20.367	3.805	0.475
144.500	149.755	79.992	19.995	102.954	20.364	4.073	0.475
145.000	149.981	79.992	19.995	102.954	20.366	3.896	0.510
145.500	150.189	79.990	19.995	102.953	20.366	3.864	0.474
146.000	150.453	79.991	19.995	102.952	20.365	3.957	0.453
146.500	150.701	79.991	19.996	102.952	20.367	3.835	0.491
147.000	150.933	79.992	19.995	102.953	20.366	3.896	0.496
147.500	151.172	79.991	19.995	102.954	20.365	3.998	0.476
148.000	151.366	79.990	19.995	102.955	20.365	3.947	0.452
148.500	151.682	79.991	19.995	102.955	20.368	3.785	0.472
149.000	151.915	79.990	19.995	102.955	20.366	3.912	0.529
149.500	152.147	79.992	19.996	102.954	20.364	4.022	0.507
150.000	152.409	79.992	19.995	102.956	20.364	4.014	0.479
150.500	152.625	79.991	19.995	102.955	20.364	4.034	0.486
151.000	152.874	79.991	19.995	102.956	20.364	4.068	0.472
151.500	153.137	79.991	19.995	102.956	20.364	4.044	0.488
152.000	153.337	79.991	19.996	102.956	20.366	3.868	0.488
152.500	153.610	79.991	19.995	102.955	20.366	3.866	0.468
153.000	153.823	79.992	19.996	102.953	20.367	3.803	0.479
153.500	154.073	79.993	19.996	102.952	20.369	3.699	0.474
154.000	154.298	79.992	19.996	102.951	20.366	3.921	0.469
154.500	154.568	79.992	19.996	102.951	20.364	4.034	0.485
155.000	154.818	79.993	19.997	102.949	20.367	3.858	0.507
155.500	155.080	79.993	19.994	102.948	20.364	4.067	0.516
156.000	155.319	79.993	19.996	102.948	20.365	3.965	0.507
156.500	155.539	79.993	19.996	102.948	20.365	3.967	0.480
157.000	155.777	79.993	19.997	102.948	20.363	4.131	0.459
157.500	156.033	79.993	19.995	102.949	20.363	4.109	0.476
158.000	156.317	79.992	19.997	102.949	20.363	4.101	0.517
158.500	156.541	79.993	19.996	102.949	20.365	3.965	0.524
159.000	156.802	79.994	19.996	102.948	20.364	4.052	0.497
159.500	157.025	79.995	19.996	102.948	20.364	4.024	0.485
160.000	157.260	79.993	19.996	102.946	20.365	3.987	0.471
160.500	157.510	79.994	19.997	102.944	20.367	3.849	0.471
161.000	157.769	79.993	19.995	102.943	20.365	3.944	0.497
161.500	158.035	79.995	19.995	102.943	20.360	4.304	0.517
162.000	158.263	79.994	19.995	102.943	20.362	4.190	0.509
162.500	158.509	79.995	19.996	102.945	20.365	3.979	0.484
163.000	158.735	79.994	19.997	102.947	20.362	4.158	0.473
163.500	158.996	79.993	19.996	102.947	20.365	3.977	0.480
164.000	159.212	79.994	19.997	102.947	20.365	3.957	0.482
164.500	159.456	79.993	19.996	102.947	20.364	4.073	0.469
165.000	159.695	79.993	19.996	102.947	20.364	4.016	0.471
165.500	159.946	79.994	19.996	102.947	20.364	4.024	0.486
166.000	160.213	79.993	19.997	102.947	20.364	4.016	0.504
166.500	160.466	79.994	19.996	102.946	20.363	4.089	0.519
167.000	160.697	79.993	19.996	102.945	20.361	4.235	0.502
167.500	160.917	79.994	19.995	102.944	20.367	3.823	0.468
168.000	161.162	79.996	19.996	102.944	20.360	4.371	0.458
168.500	161.448	79.994	19.996	102.944	20.366	3.914	0.498
169.000	161.666	79.993	19.996	102.942	20.366	3.890	0.517
169.500	161.914	79.993	19.996	102.943	20.363	4.107	0.485
170.000	162.144	79.994	19.996	102.940	20.365	3.945	0.472
170.500	162.388	79.993	19.997	102.935	20.364	4.014	0.476
171.000	162.604	79.994	19.996	102.935	20.363	4.084	0.467
171.500	162.877	79.993	19.995	102.935	20.364	4.018	0.474
172.000	163.119	79.992	19.996	102.936	20.362	4.192	0.502
172.500	163.365	79.994	19.997	102.939	20.364	4.052	0.501
