Sample ID:	C:\MCC\MCC Cal\Test\Nylon_MCC_30K_min_220330_R3.txt
Sample Weight (mg):	4.31
Heating Rate (C/s):	0.5
Combustor Temp (C):	900
N2 Flow Rate (cc/min):	80
O2 Flow Rate (cc/min):	20
Calibration File:	C:\MCC\MCC Cal\Coeff1 JN10440_30_210304.txt.txt
T Correction Coefficients:	0	1.024463	0
Time Shift (s):	14
*
Time (s)	Temperature (C)	N2 flow rate (cc/min)	O2 flow rate (cc/min)	Flow Rate (cc/min)	Oxygen (%)	HRR (W/g)	Heating rate (C/s)
0.000	106.570	80.016	19.998	103.687	20.070	0.178	-0.010
0.500	106.573	80.013	19.996	103.683	20.068	0.367	-0.016
1.000	106.570	80.008	19.991	103.678	20.069	0.241	-0.011
1.500	106.550	80.013	19.995	103.676	20.068	0.311	-0.012
2.000	106.526	80.010	19.999	103.669	20.070	0.222	-0.033
2.500	106.556	80.007	19.997	103.665	20.070	0.191	-0.019
3.000	106.625	80.010	19.986	103.668	20.074	-0.102	0.052
3.500	106.588	80.019	19.993	103.674	20.066	0.525	0.065
4.000	106.606	80.015	19.995	103.677	20.063	0.731	0.006
4.500	106.583	80.012	19.994	103.681	20.069	0.262	-0.012
5.000	106.554	80.012	19.995	103.682	20.073	-0.054	-0.028
5.500	106.565	80.012	19.990	103.684	20.072	0.054	-0.035
6.000	106.543	80.015	19.994	103.680	20.069	0.289	-0.015
6.500	106.543	80.017	19.993	103.681	20.071	0.149	-0.016
7.000	106.539	80.010	20.000	103.684	20.072	0.083	-0.013
7.500	106.522	80.012	19.999	103.690	20.074	-0.093	-0.013
8.000	106.536	80.015	19.993	103.694	20.070	0.231	-0.012
8.500	106.542	80.015	19.993	103.700	20.071	0.120	0.008
9.000	106.600	80.010	19.995	103.702	20.071	0.152	0.042
9.500	106.555	80.012	19.999	103.703	20.072	0.031	0.039
10.000	106.558	80.008	19.997	103.703	20.076	-0.283	-0.014
10.500	106.592	80.011	19.991	103.702	20.073	-0.010	-0.003
11.000	106.560	80.013	19.997	103.702	20.069	0.274	0.020
11.500	106.601	80.011	19.992	103.703	20.069	0.299	0.005
12.000	106.534	80.006	19.993	103.705	20.069	0.278	-0.008
12.500	106.594	80.014	19.992	103.706	20.066	0.527	-0.016
13.000	106.602	80.014	19.995	103.711	20.067	0.401	0.031
13.500	106.588	80.014	19.991	103.711	20.064	0.636	0.031
14.000	106.628	80.016	19.989	103.718	20.063	0.702	0.010
14.500	106.592	80.014	19.990	103.724	20.064	0.663	0.015
15.000	106.633	80.010	19.992	103.730	20.064	0.659	0.005
15.500	106.620	80.013	19.995	103.736	20.060	0.917	0.017
16.000	106.607	80.009	19.993	103.741	20.062	0.776	0.001
16.500	106.597	80.014	19.992	103.743	20.060	0.961	-0.024
17.000	106.673	80.018	19.992	103.744	20.060	0.950	0.022
17.500	106.636	80.014	19.993	103.751	20.057	1.152	0.053
18.000	106.630	80.012	19.994	103.759	20.055	1.347	-0.002
18.500	106.713	80.008	19.992	103.770	20.060	0.966	0.017
19.000	106.707	80.005	19.992	103.778	20.055	1.349	0.077
19.500	106.794	80.008	19.993	103.790	20.058	1.072	0.079
20.000	106.768	80.010	19.992	103.800	20.053	1.506	0.071
20.500	106.757	80.006	19.992	103.803	20.054	1.432	0.012
21.000	106.807	80.012	19.990	103.801	20.051	1.660	0.001
21.500	106.822	80.011	19.994	103.786	20.052	1.521	0.053
22.001	106.839	80.005	19.998	103.762	20.048	1.816	0.049
22.501	106.901	80.014	19.991	103.742	20.049	1.748	0.055
23.000	106.915	80.010	19.994	103.734	20.051	1.598	0.077
23.500	106.934	80.010	19.994	103.732	20.050	1.729	0.054
24.000	106.954	80.014	19.991	103.746	20.048	1.877	0.036
24.500	107.025	80.008	19.996	103.773	20.046	1.995	0.066
25.000	107.039	80.010	19.995	103.793	20.048	1.823	0.088
25.500	107.037	80.011	19.995	103.837	20.048	1.833	0.048
26.000	107.086	80.008	19.994	103.885	20.046	2.016	0.029
26.501	107.149	80.011	19.992	103.910	20.047	1.894	0.080
27.001	107.153	80.012	19.993	103.920	20.047	1.962	0.090
27.500	107.218	80.010	19.989	103.927	20.052	1.516	0.068
28.000	107.263	80.006	19.996	103.905	20.044	2.123	0.090
28.500	107.313	80.011	19.994	103.872	20.051	1.605	0.102
29.000	107.361	80.012	19.996	103.857	20.046	1.969	0.096
29.500	107.401	80.010	19.994	103.849	20.044	2.154	0.094
30.000	107.414	80.010	19.995	103.841	20.043	2.208	0.070
30.500	107.485	80.010	19.995	103.832	20.047	1.927	0.068
31.000	107.578	80.012	19.993	103.829	20.046	2.015	0.124
31.500	107.612	80.010	19.995	103.829	20.042	2.329	0.146
32.000	107.652	80.009	19.996	103.834	20.044	2.148	0.101
32.500	107.761	80.016	19.992	103.838	20.041	2.385	0.111
33.000	107.798	80.008	19.998	103.842	20.037	2.645	0.147
33.500	107.897	80.011	19.991	103.846	20.036	2.786	0.141
34.000	107.930	80.012	19.997	103.851	20.037	2.651	0.134
34.500	107.967	80.014	19.995	103.852	20.036	2.720	0.101
35.000	108.046	80.011	19.992	103.855	20.036	2.759	0.093
35.500	108.130	80.012	19.993	103.858	20.033	2.959	0.139
36.000	108.191	80.005	19.995	103.863	20.036	2.736	0.154
36.500	108.271	80.013	19.989	103.862	20.034	2.915	0.143
37.001	108.346	80.016	19.990	103.869	20.033	2.956	0.148
37.501	108.416	80.015	19.992	103.875	20.035	2.800	0.150
38.000	108.494	80.007	19.990	103.876	20.032	3.073	0.147
38.500	108.557	80.004	19.990	103.880	20.038	2.603	0.145
39.000	108.682	80.013	19.985	103.882	20.029	3.272	0.164
39.500	108.762	80.015	19.993	103.882	20.031	3.112	0.196
40.000	108.809	80.010	19.995	103.884	20.033	2.977	0.166
40.501	108.940	80.016	19.994	103.889	20.032	3.065	0.153
41.001	108.977	80.014	19.993	103.891	20.033	3.009	0.173
41.501	109.106	80.008	19.994	103.894	20.030	3.206	0.167
42.001	109.178	80.014	19.994	103.895	20.033	2.992	0.183
42.500	109.297	80.016	19.996	103.895	20.034	2.886	0.196
43.000	109.355	80.013	19.996	103.894	20.030	3.196	0.184
43.500	109.513	80.013	19.996	103.895	20.030	3.181	0.197
44.000	109.567	80.010	19.994	103.897	20.030	3.204	0.214
44.500	109.686	80.009	19.991	103.896	20.031	3.134	0.193
45.000	109.747	80.012	19.992	103.897	20.028	3.360	0.177
45.500	109.891	80.012	19.995	103.897	20.030	3.179	0.193
46.000	109.969	80.015	19.991	103.897	20.034	2.872	0.214
46.500	110.056	80.014	19.998	103.898	20.029	3.302	0.194
47.000	110.147	80.007	20.001	103.897	20.034	2.924	0.171
47.501	110.253	80.007	19.989	103.893	20.032	3.019	0.187
48.001	110.379	80.010	19.994	103.888	20.031	3.125	0.214
48.500	110.495	80.011	19.996	103.884	20.031	3.144	0.237
49.000	110.585	80.010	19.992	103.878	20.033	2.978	0.224
49.500	110.709	80.010	19.989	103.875	20.031	3.119	0.210
50.000	110.828	80.013	19.992	103.877	20.030	3.217	0.228
50.500	110.913	80.010	19.996	103.882	20.030	3.183	0.223
51.000	111.043	80.006	20.002	103.885	20.031	3.100	0.210
51.500	111.171	80.012	19.995	103.887	20.030	3.206	0.237
52.000	111.258	80.017	19.992	103.890	20.030	3.229	0.237
52.500	111.367	80.014	19.992	103.890	20.033	2.993	0.205
53.000	111.474	80.007	19.993	103.892	20.028	3.371	0.206
53.500	111.624	80.013	19.991	103.892	20.030	3.174	0.237
54.000	111.770	80.011	19.995	103.897	20.032	3.051	0.276
54.500	111.864	80.013	19.989	103.898	20.033	2.986	0.268
55.000	112.011	80.009	19.995	103.901	20.030	3.209	0.241
55.500	112.151	80.012	19.994	103.898	20.027	3.454	0.264
56.000	112.256	80.014	19.995	103.898	20.035	2.866	0.266
56.500	112.395	80.012	19.992	103.898	20.031	3.155	0.244
57.000	112.521	80.011	19.993	103.898	20.032	3.053	0.254
57.501	112.643	80.012	19.994	103.897	20.033	2.970	0.256
58.001	112.765	80.010	19.995	103.898	20.030	3.238	0.246
58.501	112.871	80.011	19.994	103.899	20.029	3.259	0.236
59.001	112.996	80.012	19.995	103.898	20.033	2.972	0.229
59.500	113.177	80.013	19.987	103.898	20.029	3.305	0.268
60.001	113.320	80.009	19.997	103.899	20.028	3.365	0.315
60.501	113.436	80.011	19.992	103.900	20.032	3.093	0.292
61.000	113.572	80.009	20.000	103.901	20.035	2.831	0.255
61.500	113.719	80.014	19.992	103.901	20.028	3.359	0.267
62.000	113.838	80.019	19.984	103.903	20.030	3.242	0.275
62.500	113.998	80.012	19.996	103.904	20.028	3.334	0.273
63.000	114.116	80.014	19.994	103.907	20.030	3.221	0.278
63.500	114.241	80.015	19.992	103.914	20.027	3.450	0.261
64.000	114.399	80.015	19.990	103.919	20.026	3.477	0.263
64.500	114.551	80.009	19.996	103.918	20.029	3.292	0.296
65.000	114.704	80.014	19.994	103.915	20.029	3.249	0.308
65.500	114.858	80.017	19.991	103.913	20.028	3.374	0.306
66.000	115.021	80.013	19.987	103.911	20.026	3.509	0.312
66.500	115.104	80.011	19.996	103.910	20.030	3.184	0.282
67.000	115.284	80.014	19.990	103.910	20.028	3.379	0.254
67.500	115.431	80.014	19.996	103.913	20.026	3.477	0.295
68.000	115.636	80.011	20.003	103.910	20.032	3.043	0.340
68.501	115.752	80.011	19.997	103.909	20.030	3.213	0.336
69.001	115.886	80.016	19.991	103.910	20.025	3.569	0.285
69.500	116.036	80.008	19.993	103.915	20.026	3.496	0.267
70.000	116.202	80.013	19.993	103.919	20.026	3.534	0.300
70.500	116.352	80.006	19.994	103.927	20.032	3.057	0.316
71.000	116.526	80.010	19.992	103.927	20.031	3.140	0.320
71.500	116.672	80.010	19.995	103.927	20.026	3.496	0.322
72.000	116.844	80.013	19.997	103.924	20.026	3.541	0.319
72.500	116.979	80.014	19.996	103.924	20.030	3.229	0.313
73.000	117.136	80.011	19.995	103.921	20.027	3.396	0.299
73.500	117.294	80.009	19.991	103.919	20.028	3.334	0.304
74.000	117.479	80.013	19.993	103.916	20.028	3.342	0.329
74.500	117.629	80.011	19.994	103.917	20.027	3.413	0.338
75.000	117.843	80.009	19.992	103.920	20.027	3.451	0.349
75.500	118.026	80.012	19.995	103.923	20.030	3.237	0.381
76.000	118.155	80.011	19.992	103.928	20.027	3.403	0.355
76.500	118.363	80.013	19.991	103.928	20.026	3.517	0.325
77.000	118.481	80.008	20.003	103.926	20.028	3.376	0.332
77.500	118.641	80.010	19.994	103.919	20.027	3.432	0.302
78.000	118.804	80.012	19.991	103.917	20.031	3.158	0.300
78.500	118.994	80.009	19.992	103.913	20.027	3.415	0.338
79.000	119.192	80.010	19.996	103.914	20.024	3.636	0.370
79.500	119.326	80.011	19.995	103.916	20.024	3.625	0.360
80.000	119.515	80.013	19.991	103.922	20.027	3.430	0.328
80.500	119.699	80.011	19.993	103.922	20.031	3.109	0.349
81.000	119.874	80.011	19.998	103.922	20.027	3.432	0.366
81.500	120.077	80.011	19.993	103.920	20.031	3.097	0.368
82.000	120.229	80.014	19.996	103.916	20.030	3.228	0.366
82.500	120.401	80.008	20.001	103.911	20.028	3.380	0.340
83.000	120.592	80.009	19.995	103.908	20.028	3.332	0.344
83.500	120.782	80.007	19.997	103.907	20.029	3.249	0.372
84.000	120.956	80.012	19.992	103.911	20.029	3.266	0.373
84.500	121.153	80.014	19.994	103.917	20.027	3.409	0.367
85.000	121.343	80.013	19.995	103.924	20.033	2.966	0.379
85.500	121.516	80.011	19.992	103.929	20.027	3.420	0.375
86.000	121.704	80.015	19.990	103.935	20.031	3.120	0.362
86.500	121.908	80.013	19.993	103.936	20.029	3.247	0.377
87.000	122.043	80.014	19.991	103.937	20.025	3.609	0.365
87.500	122.246	80.011	19.998	103.935	20.024	3.621	0.339
88.000	122.416	80.014	19.991	103.935	20.025	3.559	0.356
88.500	122.590	80.013	19.991	103.936	20.025	3.606	0.358
89.000	122.811	80.017	19.991	103.938	20.029	3.292	0.369
89.500	123.005	80.014	19.992	103.931	20.028	3.378	0.406
90.000	123.216	80.013	19.994	103.929	20.023	3.725	0.410
90.500	123.359	80.013	19.992	103.925	20.028	3.355	0.379
91.000	123.567	80.015	19.994	103.922	20.024	3.632	0.352
91.500	123.793	80.012	19.994	103.916	20.029	3.295	0.393
92.000	123.970	80.012	19.993	103.920	20.026	3.490	0.419
92.500	124.144	80.014	19.995	103.924	20.024	3.671	0.377
93.000	124.341	80.015	19.993	103.928	20.030	3.236	0.361
93.500	124.518	80.013	19.991	103.931	20.025	3.590	0.372
94.000	124.795	80.014	19.992	103.937	20.024	3.683	0.414
94.500	124.974	80.016	19.990	103.940	20.026	3.498	0.455
95.000	125.180	80.012	19.992	103.940	20.026	3.502	0.420
95.500	125.384	80.014	19.991	103.939	20.025	3.569	0.397
96.000	125.601	80.012	19.991	103.938	20.027	3.436	0.416
96.500	125.748	80.010	19.994	103.936	20.025	3.590	0.393
97.000	125.971	80.011	19.992	103.934	20.027	3.467	0.367
97.500	126.197	80.005	19.994	103.934	20.028	3.373	0.409
98.000	126.391	80.013	19.995	103.932	20.029	3.271	0.434
98.500	126.576	80.010	19.994	103.929	20.024	3.642	0.400
99.000	126.770	80.007	20.001	103.927	20.025	3.563	0.379
99.500	126.980	80.010	19.993	103.926	20.029	3.307	0.392
100.000	127.221	80.014	19.995	103.920	20.025	3.551	0.427
100.500	127.400	80.011	19.995	103.921	20.027	3.440	0.436
101.000	127.575	80.001	19.999	103.924	20.026	3.472	0.387
101.500	127.779	80.013	19.991	103.926	20.027	3.420	0.366
102.000	128.017	80.020	19.995	103.929	20.026	3.532	0.411
102.500	128.181	80.018	19.990	103.933	20.029	3.309	0.422
103.000	128.420	80.006	19.995	103.934	20.027	3.399	0.402
103.500	128.608	80.013	19.991	103.930	20.026	3.505	0.415
104.000	128.805	80.012	19.989	103.926	20.031	3.162	0.406
104.500	129.018	80.011	19.991	103.921	20.028	3.372	0.397
105.000	129.265	80.009	19.995	103.923	20.025	3.617	0.435
105.500	129.472	80.011	19.993	103.922	20.027	3.426	0.457
106.000	129.722	80.008	19.994	103.926	20.029	3.316	0.456
106.500	129.856	80.010	20.000	103.930	20.027	3.407	0.421
107.000	130.094	80.009	19.995	103.930	20.026	3.499	0.378
107.500	130.297	80.012	19.996	103.926	20.028	3.372	0.406
108.000	130.533	80.010	19.995	103.920	20.028	3.374	0.440
108.500	130.713	80.009	19.994	103.919	20.027	3.428	0.427
109.000	130.921	80.012	19.994	103.921	20.023	3.738	0.402
109.500	131.156	80.011	19.998	103.925	20.027	3.459	0.415
110.000	131.308	80.006	20.000	103.928	20.027	3.457	0.416
110.500	131.556	80.010	19.997	103.933	20.026	3.470	0.394
111.000	131.788	80.012	19.993	103.933	20.026	3.495	0.440
111.500	132.011	80.012	19.994	103.934	20.030	3.228	0.467
112.000	132.204	80.010	19.991	103.935	20.027	3.411	0.435
112.500	132.453	80.010	19.992	103.936	20.030	3.207	0.429
113.000	132.659	80.016	19.994	103.932	20.026	3.480	0.449
113.500	132.916	80.014	19.991	103.931	20.029	3.270	0.459
114.001	133.062	80.011	19.994	103.930	20.028	3.346	0.433
114.501	133.292	80.009	19.997	103.929	20.025	3.596	0.389
115.000	133.525	80.012	19.993	103.929	20.028	3.388	0.420
115.500	133.751	80.016	19.994	103.936	20.028	3.357	0.461
116.000	133.962	80.009	19.995	103.939	20.027	3.430	0.448
116.500	134.186	80.012	19.995	103.938	20.028	3.332	0.436
117.001	134.403	80.011	19.989	103.939	20.024	3.657	0.438
117.501	134.627	80.010	19.994	103.940	20.026	3.540	0.441
118.001	134.847	80.011	19.993	103.938	20.029	3.288	0.442
118.500	135.063	80.015	19.990	103.938	20.029	3.295	0.440
119.000	135.286	80.012	19.988	103.939	20.028	3.380	0.438
119.500	135.529	80.015	19.988	103.940	20.026	3.515	0.453
120.000	135.770	80.014	19.990	103.940	20.026	3.507	0.475
120.500	135.967	80.010	19.998	103.941	20.029	3.280	0.461
121.000	136.189	80.009	19.987	103.939	20.030	3.230	0.429
121.500	136.436	80.010	19.988	103.939	20.030	3.241	0.444
122.000	136.671	80.012	19.994	103.939	20.027	3.397	0.475
122.500	136.848	80.010	19.994	103.938	20.032	3.029	0.447
123.000	137.085	80.010	19.994	103.936	20.029	3.276	0.413
123.500	137.313	80.012	19.996	103.935	20.030	3.236	0.439
124.000	137.547	80.011	19.992	103.931	20.031	3.143	0.463
124.500	137.761	80.013	19.993	103.926	20.033	3.003	0.456
125.000	137.984	80.011	19.993	103.924	20.033	3.007	0.443
125.500	138.194	80.010	19.995	103.926	20.028	3.388	0.435
126.000	138.458	80.009	19.993	103.927	20.029	3.244	0.453
126.500	138.696	80.013	19.995	103.931	20.030	3.232	0.488
127.000	138.922	80.011	19.996	103.935	20.034	2.932	0.483
127.500	139.137	80.010	19.996	103.937	20.030	3.172	0.452
128.000	139.381	80.010	19.995	103.935	20.032	3.076	0.450
128.500	139.595	80.011	19.990	103.933	20.033	3.003	0.459
129.000	139.811	80.007	19.992	103.930	20.034	2.937	0.444
129.500	140.077	80.011	19.994	103.929	20.030	3.230	0.456
130.000	140.334	80.011	19.994	103.926	20.031	3.143	0.503
130.500	140.511	80.018	19.993	103.928	20.031	3.136	0.478
131.000	140.719	80.003	19.996	103.932	20.035	2.839	0.409
131.500	141.003	80.010	19.994	103.934	20.033	2.955	0.439
132.000	141.219	80.012	19.996	103.934	20.030	3.234	0.496
132.500	141.428	80.004	19.996	103.938	20.032	3.017	0.462
133.000	141.699	80.011	19.995	103.937	20.031	3.096	0.453
133.500	141.891	80.013	19.992	103.934	20.032	3.080	0.472
134.000	142.139	80.013	19.996	103.934	20.035	2.811	0.451
134.500	142.406	80.011	19.994	103.932	20.034	2.916	0.477
135.000	142.628	80.009	19.995	103.926	20.031	3.134	0.502
135.500	142.883	80.010	19.995	103.924	20.030	3.192	0.483
136.000	143.068	80.015	19.994	103.918	20.033	2.960	0.459
136.500	143.312	80.015	19.995	103.913	20.035	2.804	0.435
137.000	143.571	80.007	19.998	103.913	20.032	3.076	0.466
137.500	143.799	80.007	19.993	103.915	20.033	2.987	0.495
138.000	144.026	80.009	19.997	103.917	20.032	3.059	0.471
138.500	144.266	80.009	19.996	103.918	20.031	3.155	0.461
139.000	144.467	80.008	19.995	103.918	20.028	3.323	0.454
139.500	144.711	80.014	19.991	103.920	20.030	3.198	0.443
140.000	144.960	80.012	19.998	103.926	20.028	3.344	0.469
140.500	145.204	80.012	19.995	103.926	20.032	3.028	0.493
141.000	145.479	80.012	19.995	103.929	20.031	3.165	0.506
141.500	145.711	80.007	19.998	103.928	20.032	3.080	0.513
142.000	145.936	80.010	19.995	103.923	20.032	3.042	0.482
142.500	146.147	80.014	19.992	103.915	20.029	3.248	0.446
143.000	146.413	80.014	19.992	103.909	20.033	3.013	0.456
143.500	146.613	80.012	19.999	103.905	20.036	2.768	0.471
144.000	146.858	80.013	19.993	103.906	20.033	2.961	0.456
144.500	147.089	80.013	19.991	103.906	20.035	2.820	0.461
145.000	147.308	80.008	19.994	103.908	20.031	3.109	0.463
145.500	147.550	80.016	19.994	103.912	20.039	2.560	0.456
146.000	147.760	80.013	19.992	103.914	20.031	3.130	0.457
146.500	148.001	80.016	19.991	103.921	20.033	2.966	0.452
147.000	148.238	80.011	19.989	103.925	20.033	2.955	0.465
147.500	148.513	80.014	19.990	103.927	20.035	2.804	0.495
148.000	148.735	80.013	19.994	103.929	20.033	2.945	0.505
148.501	148.983	80.010	20.004	103.930	20.035	2.818	0.484
149.001	149.211	80.008	19.997	103.924	20.038	2.623	0.473
149.500	149.410	80.014	19.992	103.919	20.030	3.236	0.451
150.000	149.697	80.014	19.992	103.918	20.032	3.037	0.457
150.500	149.923	80.013	19.991	103.914	20.032	3.057	0.500
151.000	150.130	80.011	19.991	103.915	20.036	2.737	0.472
151.500	150.403	80.008	19.994	103.914	20.035	2.839	0.456
152.000	150.598	80.013	19.990	103.915	20.039	2.554	0.475
152.500	150.854	80.009	19.999	103.914	20.036	2.791	0.459
153.000	151.063	80.012	19.992	103.911	20.041	2.394	0.458
153.500	151.294	80.012	19.993	103.907	20.034	2.887	0.452
154.000	151.527	80.012	19.994	103.905	20.036	2.720	0.452
154.501	151.840	80.012	19.989	103.905	20.040	2.438	0.505
155.000	152.014	80.014	19.991	103.905	20.037	2.660	0.517
155.500	152.273	80.019	19.989	103.912	20.040	2.477	0.460
156.000	152.492	80.009	19.996	103.915	20.037	2.714	0.455
156.500	152.741	80.014	19.990	103.916	20.040	2.485	0.473
157.000	153.016	80.013	19.992	103.917	20.039	2.529	0.496
157.500	153.241	80.012	19.992	103.921	20.042	2.333	0.512
158.000	153.486	80.015	19.994	103.921	20.035	2.830	0.485
158.500	153.726	80.009	19.990	103.922	20.035	2.818	0.478
159.000	153.958	80.012	19.991	103.929	20.037	2.666	0.478
159.500	154.207	80.012	19.994	103.934	20.038	2.629	0.476
160.000	154.372	80.010	19.995	103.932	20.040	2.458	0.448
160.500	154.644	80.013	19.993	103.931	20.041	2.350	0.426
161.000	154.875	80.014	19.995	103.927	20.039	2.522	0.470
161.500	155.131	80.012	19.993	103.920	20.039	2.564	0.495
162.000	155.336	80.025	19.998	103.921	20.036	2.774	0.474
162.500	155.567	80.024	19.995	103.925	20.037	2.666	0.448
163.000	155.843	80.019	19.994	103.922	20.040	2.424	0.472
163.500	156.021	80.014	19.995	103.922	20.035	2.801	0.481
164.000	156.325	80.015	19.992	103.924	20.037	2.672	0.468
164.500	156.573	80.015	19.994	103.925	20.036	2.786	0.516
165.000	156.772	80.013	19.995	103.924	20.035	2.865	0.499
165.500	157.033	80.014	19.994	103.922	20.042	2.323	0.454
166.000	157.272	80.013	19.995	103.923	20.035	2.824	0.480
166.500	157.531	80.014	19.994	103.920	20.040	2.443	0.499
167.000	157.783	80.012	19.994	103.916	20.034	2.928	0.505
167.500	158.047	80.015	19.993	103.914	20.037	2.716	0.513
168.000	158.247	80.012	19.991	103.915	20.035	2.840	0.490
168.500	158.473	80.016	19.994	103.913	20.038	2.626	0.445
169.000	158.714	80.011	19.994	103.912	20.037	2.705	0.446
169.500	158.955	80.021	19.994	103.908	20.040	2.441	0.475
170.001	159.226	80.014	19.992	103.910	20.036	2.741	0.497
170.501	159.408	80.014	19.991	103.910	20.038	2.626	0.483
171.000	159.685	80.015	19.995	103.909	20.037	2.711	0.456
171.500	159.926	80.014	19.996	103.910	20.036	2.753	0.488
172.000	160.159	80.010	19.992	103.909	20.033	2.982	0.496
172.501	160.371	80.012	19.994	103.902	20.037	2.686	0.460
