Sample ID:	C:\MCC\MCC Cal\Test\nylon_MCC_30K_min_220329_R1.txt
Sample Weight (mg):	4.58
Heating Rate (C/s):	0.5
Combustor Temp (C):	900
N2 Flow Rate (cc/min):	80
O2 Flow Rate (cc/min):	20
Calibration File:	C:\MCC\MCC Cal\Coeff1 JN10440_30_210304.txt.txt
T Correction Coefficients:	0	1.024463	0
Time Shift (s):	14
*
Time (s)	Temperature (C)	N2 flow rate (cc/min)	O2 flow rate (cc/min)	Flow Rate (cc/min)	Oxygen (%)	HRR (W/g)	Heating rate (C/s)
0.000	111.526	80.010	19.994	103.669	20.054	-0.163	-0.024
0.500	111.559	80.012	19.993	103.668	20.058	-0.431	-0.009
1.000	111.543	80.010	19.995	103.665	20.061	-0.647	0.022
1.500	111.558	80.011	19.994	103.664	20.058	-0.410	0.008
2.000	111.524	80.011	19.995	103.664	20.054	-0.134	-0.010
2.500	111.546	80.010	19.994	103.665	20.055	-0.188	-0.016
3.000	111.536	80.011	19.995	103.666	20.056	-0.297	-0.000
3.500	111.523	80.010	19.994	103.667	20.058	-0.426	-0.005
4.000	111.506	80.010	19.993	103.667	20.055	-0.229	-0.027
4.500	111.488	80.010	19.994	103.667	20.059	-0.470	-0.033
5.000	111.498	80.010	19.993	103.667	20.059	-0.484	-0.022
5.500	111.524	80.010	19.992	103.668	20.060	-0.542	0.014
6.000	111.516	80.010	19.993	103.668	20.062	-0.694	0.028
6.500	111.467	80.010	19.993	103.668	20.056	-0.284	-0.019
7.000	111.522	80.010	19.992	103.669	20.052	-0.033	-0.026
7.500	111.524	80.011	19.993	103.668	20.057	-0.338	0.031
8.000	111.520	80.011	19.993	103.662	20.055	-0.206	0.027
8.500	111.510	80.012	19.993	103.658	20.054	-0.159	-0.008
9.000	111.496	80.011	19.993	103.658	20.054	-0.175	-0.019
9.500	111.487	80.010	19.992	103.658	20.057	-0.389	-0.023
10.001	111.468	80.010	19.993	103.659	20.058	-0.426	-0.025
10.501	111.493	80.011	19.994	103.666	20.057	-0.356	-0.011
11.000	111.490	80.011	19.994	103.672	20.056	-0.255	0.014
11.500	111.516	80.013	19.993	103.675	20.058	-0.438	0.022
12.000	111.486	80.011	19.992	103.676	20.055	-0.220	0.009
12.501	111.457	80.011	19.993	103.681	20.053	-0.101	-0.032
13.001	111.494	80.012	19.992	103.688	20.056	-0.272	-0.025
13.500	111.508	80.012	19.992	103.695	20.056	-0.280	0.030
14.000	111.488	80.012	19.993	103.704	20.057	-0.366	0.023
14.500	111.460	80.012	19.992	103.713	20.057	-0.333	-0.027
15.000	111.502	80.013	19.992	103.720	20.051	0.031	-0.017
15.500	111.479	80.012	19.992	103.726	20.051	0.088	0.016
16.000	111.490	80.012	19.993	103.734	20.051	0.088	0.003
16.500	111.475	80.012	19.992	103.736	20.045	0.490	-0.008
17.000	111.490	80.013	19.993	103.745	20.047	0.321	-0.001
17.500	111.496	80.013	19.992	103.739	20.049	0.197	0.011
18.000	111.510	80.013	19.991	103.714	20.047	0.315	0.020
18.500	111.480	80.013	19.992	103.691	20.044	0.572	0.001
19.000	111.491	80.013	19.992	103.676	20.046	0.403	-0.017
19.500	111.529	80.013	19.993	103.664	20.045	0.471	0.016
20.000	111.547	80.011	19.991	103.674	20.041	0.737	0.053
20.500	111.532	80.012	19.992	103.704	20.044	0.576	0.029
21.000	111.529	80.012	19.994	103.768	20.042	0.720	-0.008
21.500	111.529	80.012	19.993	103.817	20.040	0.835	-0.010
22.000	111.544	80.011	19.994	103.847	20.038	0.977	0.006
22.500	111.583	80.011	19.993	103.863	20.038	0.977	0.035
23.000	111.599	80.011	19.993	103.874	20.037	1.033	0.055
23.500	111.660	80.011	19.993	103.847	20.036	1.156	0.066
24.000	111.647	80.010	19.992	103.830	20.037	1.059	0.062
24.500	111.699	80.012	19.991	103.825	20.033	1.360	0.044
25.000	111.720	80.011	19.992	103.828	20.032	1.415	0.056
25.500	111.776	80.010	19.993	103.833	20.032	1.409	0.075
26.000	111.799	80.010	19.993	103.841	20.033	1.358	0.078
26.500	111.818	80.009	19.993	103.850	20.028	1.670	0.060
27.001	111.876	80.009	19.992	103.857	20.030	1.535	0.060
27.500	111.930	80.010	19.993	103.863	20.029	1.633	0.094
28.000	111.943	80.009	19.992	103.866	20.027	1.777	0.089
28.500	111.985	80.010	19.992	103.866	20.026	1.862	0.061
29.000	112.046	80.009	19.993	103.860	20.029	1.603	0.079
29.500	112.070	80.009	19.993	103.856	20.023	2.037	0.094
30.000	112.093	80.009	19.993	103.856	20.024	1.963	0.066
30.500	112.156	80.010	19.992	103.856	20.025	1.899	0.066
31.000	112.232	80.009	19.994	103.853	20.021	2.170	0.112
31.500	112.277	80.010	19.993	103.853	20.025	1.874	0.130
32.001	112.313	80.008	19.992	103.850	20.022	2.119	0.101
32.501	112.371	80.008	19.994	103.848	20.019	2.356	0.087
33.000	112.434	80.009	19.993	103.848	20.022	2.109	0.108
33.500	112.509	80.008	19.992	103.851	20.019	2.344	0.130
34.000	112.546	80.009	19.993	103.858	20.022	2.148	0.125
34.500	112.614	80.009	19.993	103.865	20.021	2.204	0.109
35.001	112.690	80.009	19.992	103.867	20.023	2.062	0.125
35.501	112.746	80.010	19.993	103.867	20.021	2.171	0.138
36.000	112.793	80.010	19.992	103.868	20.019	2.323	0.117
36.500	112.873	80.010	19.993	103.867	20.018	2.373	0.115
37.001	112.981	80.009	19.992	103.866	20.018	2.409	0.157
37.501	113.024	80.010	19.993	103.866	20.020	2.278	0.170
38.000	113.095	80.009	19.993	103.866	20.020	2.278	0.133
38.500	113.151	80.009	19.992	103.862	20.018	2.374	0.121
39.000	113.242	80.008	19.993	103.857	20.019	2.339	0.137
39.500	113.337	80.009	19.991	103.853	20.018	2.387	0.167
40.000	113.421	80.009	19.993	103.852	20.021	2.179	0.183
40.500	113.488	80.008	19.992	103.850	20.019	2.333	0.165
41.000	113.534	80.010	19.993	103.853	20.018	2.409	0.132
41.500	113.630	80.011	19.993	103.857	20.022	2.106	0.127
42.000	113.727	80.009	19.993	103.859	20.021	2.162	0.167
42.501	113.832	80.008	19.992	103.857	20.024	2.000	0.198
43.001	113.875	80.010	19.992	103.852	20.021	2.187	0.176
43.501	113.993	80.008	19.992	103.847	20.021	2.216	0.155
44.000	114.088	80.009	19.993	103.841	20.020	2.238	0.187
44.500	114.139	80.010	19.993	103.839	20.019	2.300	0.179
45.000	114.229	80.009	19.994	103.839	20.021	2.164	0.144
45.500	114.330	80.010	19.993	103.837	20.023	2.078	0.166
46.000	114.385	80.010	19.992	103.835	20.022	2.107	0.173
46.501	114.481	80.009	19.992	103.836	20.022	2.096	0.153
47.001	114.575	80.009	19.993	103.835	20.020	2.222	0.170
47.501	114.658	80.010	19.992	103.836	20.020	2.267	0.184
48.000	114.805	80.010	19.993	103.841	20.019	2.349	0.204
48.501	114.906	80.009	19.992	103.844	20.020	2.283	0.239
49.001	114.996	80.010	19.992	103.848	20.021	2.156	0.220
49.501	115.059	80.011	19.992	103.848	20.019	2.298	0.172
50.001	115.204	80.009	19.993	103.849	20.019	2.335	0.180
50.501	115.265	80.008	19.993	103.852	20.020	2.257	0.207
51.000	115.389	80.011	19.993	103.857	20.019	2.347	0.196
51.500	115.494	80.009	19.994	103.859	20.022	2.113	0.208
52.000	115.586	80.009	19.992	103.863	20.020	2.251	0.213
52.501	115.692	80.008	19.993	103.863	20.020	2.271	0.197
53.001	115.793	80.009	19.993	103.861	20.021	2.197	0.202
53.500	115.885	80.008	19.991	103.857	20.020	2.236	0.200
54.000	115.970	80.009	19.993	103.853	20.019	2.324	0.185
54.500	116.091	80.009	19.993	103.848	20.018	2.380	0.192
55.000	116.232	80.008	19.993	103.849	20.022	2.096	0.234
55.500	116.347	80.009	19.993	103.849	20.018	2.368	0.259
56.000	116.439	80.008	19.993	103.853	20.023	2.053	0.231
56.500	116.572	80.009	19.993	103.857	20.023	2.016	0.216
57.000	116.660	80.010	19.994	103.860	20.025	1.874	0.223
57.500	116.752	80.009	19.994	103.857	20.024	1.950	0.201
58.000	116.904	80.008	19.993	103.856	20.025	1.901	0.212
58.500	116.980	80.008	19.993	103.856	20.024	2.002	0.236
59.000	117.100	80.009	19.994	103.857	20.024	2.002	0.212
59.500	117.258	80.010	19.994	103.859	20.022	2.125	0.237
60.001	117.405	80.010	19.994	103.863	20.022	2.141	0.292
60.501	117.495	80.008	19.994	103.865	20.018	2.380	0.271
61.000	117.598	80.007	19.993	103.865	20.023	2.075	0.214
61.500	117.727	80.012	19.994	103.864	20.019	2.304	0.212
62.000	117.806	80.008	19.994	103.863	20.021	2.193	0.220
62.500	117.995	80.010	19.994	103.863	20.018	2.374	0.239
63.000	118.064	80.011	19.994	103.863	20.020	2.261	0.263
63.500	118.210	80.009	19.994	103.863	20.020	2.261	0.236
64.000	118.329	80.009	19.994	103.864	20.018	2.374	0.240
64.500	118.460	80.010	19.994	103.865	20.020	2.283	0.257
65.000	118.580	80.009	19.994	103.866	20.020	2.234	0.251
65.500	118.667	80.008	19.994	103.865	20.018	2.388	0.230
66.001	118.807	80.008	19.995	103.865	20.017	2.489	0.217
66.501	118.985	80.011	19.994	103.865	20.020	2.275	0.272
67.000	119.073	80.009	19.993	103.865	20.020	2.285	0.292
67.501	119.163	80.009	19.994	103.864	20.017	2.456	0.223
68.001	119.315	80.009	19.994	103.866	20.017	2.495	0.210
68.501	119.481	80.010	19.995	103.866	20.019	2.314	0.279
69.000	119.612	80.010	19.993	103.865	20.021	2.164	0.307
69.500	119.709	80.009	19.993	103.865	20.019	2.341	0.263
70.000	119.865	80.010	19.992	103.865	20.017	2.464	0.241
70.501	120.014	80.011	19.995	103.865	20.018	2.402	0.279
71.001	120.210	80.011	19.995	103.866	20.015	2.590	0.324
71.500	120.342	80.011	19.995	103.870	20.014	2.705	0.336
72.000	120.427	80.011	19.994	103.872	20.017	2.503	0.273
72.500	120.578	80.011	19.993	103.874	20.014	2.715	0.227
73.000	120.704	80.012	19.994	103.874	20.014	2.649	0.257
73.500	120.835	80.010	19.993	103.876	20.015	2.612	0.267
74.000	120.985	80.010	19.993	103.874	20.015	2.627	0.269
74.500	121.128	80.012	19.993	103.872	20.016	2.540	0.287
75.000	121.238	80.011	19.993	103.871	20.017	2.452	0.273
75.500	121.434	80.011	19.993	103.873	20.020	2.254	0.279
76.000	121.550	80.013	19.992	103.871	20.019	2.343	0.309
76.501	121.741	80.013	19.993	103.870	20.021	2.166	0.310
77.001	121.868	80.013	19.993	103.869	20.020	2.246	0.312
77.501	122.004	80.012	19.993	103.868	20.018	2.378	0.291
78.000	122.165	80.010	19.992	103.869	20.017	2.452	0.280
78.500	122.301	80.009	19.993	103.869	20.016	2.526	0.296
79.000	122.482	80.011	19.992	103.869	20.015	2.592	0.307
79.500	122.599	80.010	19.993	103.870	20.015	2.610	0.308
80.001	122.793	80.011	19.992	103.870	20.012	2.845	0.305
80.501	122.900	80.011	19.993	103.867	20.016	2.530	0.307
81.000	123.098	80.011	19.996	103.868	20.013	2.742	0.303
81.501	123.207	80.010	19.994	103.874	20.017	2.493	0.306
82.001	123.372	80.011	19.993	103.880	20.015	2.637	0.291
82.500	123.516	80.009	19.994	103.880	20.015	2.618	0.291
83.000	123.669	80.009	19.993	103.883	20.015	2.641	0.302
83.500	123.840	80.010	19.994	103.881	20.011	2.922	0.310
84.000	123.995	80.010	19.993	103.876	20.015	2.638	0.325
84.500	124.108	80.010	19.993	103.869	20.013	2.731	0.297
85.000	124.303	80.009	19.995	103.868	20.014	2.655	0.288
85.500	124.453	80.013	19.994	103.866	20.015	2.616	0.326
86.000	124.640	80.009	19.994	103.868	20.015	2.637	0.340
86.500	124.819	80.011	19.993	103.871	20.015	2.620	0.352
87.000	124.911	80.010	19.994	103.872	20.014	2.659	0.319
87.500	125.081	80.010	19.994	103.874	20.018	2.410	0.267
88.001	125.238	80.009	19.994	103.880	20.016	2.522	0.294
88.501	125.403	80.011	19.994	103.884	20.015	2.585	0.324
89.000	125.552	80.011	19.994	103.883	20.015	2.602	0.318
89.500	125.742	80.010	19.995	103.883	20.013	2.760	0.327
90.000	125.923	80.009	19.994	103.882	20.016	2.544	0.355
90.500	126.099	80.010	19.994	103.880	20.015	2.597	0.364
91.000	126.260	80.011	19.994	103.875	20.013	2.748	0.347
91.500	126.478	80.007	19.994	103.877	20.016	2.573	0.358
92.000	126.552	80.010	19.995	103.884	20.013	2.760	0.335
92.500	126.741	80.009	19.995	103.888	20.015	2.612	0.277
93.000	126.872	80.009	19.994	103.891	20.014	2.684	0.292
93.500	127.047	80.010	19.994	103.894	20.014	2.682	0.313
94.000	127.196	80.011	19.994	103.895	20.014	2.657	0.315
94.500	127.363	80.012	19.994	103.890	20.014	2.710	0.320
95.000	127.534	80.010	19.995	103.893	20.016	2.517	0.327
95.500	127.725	80.009	19.994	103.888	20.012	2.807	0.350
96.000	127.901	80.010	19.994	103.885	20.013	2.751	0.365
96.500	128.093	80.011	19.994	103.885	20.012	2.789	0.367
97.000	128.244	80.012	19.993	103.884	20.015	2.599	0.355
97.500	128.380	80.013	19.993	103.876	20.013	2.770	0.315
98.000	128.588	80.007	19.993	103.877	20.017	2.476	0.315
98.500	128.759	80.011	19.993	103.881	20.015	2.583	0.361
99.000	128.936	80.011	19.992	103.882	20.016	2.509	0.363
99.500	129.094	80.012	19.993	103.884	20.014	2.696	0.342
100.000	129.231	80.011	19.994	103.889	20.015	2.638	0.315
100.500	129.463	80.012	19.994	103.892	20.015	2.636	0.332
101.000	129.632	80.010	19.992	103.892	20.017	2.461	0.385
101.500	129.842	80.010	19.992	103.894	20.016	2.523	0.390
102.000	130.021	80.011	19.992	103.890	20.018	2.431	0.383
102.500	130.156	80.012	19.993	103.888	20.019	2.340	0.352
103.000	130.359	80.011	19.993	103.885	20.016	2.568	0.327
103.500	130.525	80.010	19.993	103.884	20.016	2.564	0.354
104.000	130.704	80.011	19.992	103.881	20.016	2.560	0.357
104.500	130.864	80.012	19.993	103.886	20.018	2.398	0.342
105.000	131.055	80.011	19.993	103.889	20.020	2.256	0.345
105.501	131.256	80.013	19.993	103.892	20.022	2.149	0.371
106.001	131.393	80.012	19.991	103.894	20.018	2.378	0.365
106.500	131.599	80.013	19.993	103.898	20.019	2.308	0.341
107.000	131.768	80.013	19.993	103.899	20.020	2.240	0.359
107.500	131.918	80.013	19.992	103.898	20.022	2.080	0.347
108.000	132.126	80.012	19.993	103.899	20.018	2.407	0.339
108.500	132.304	80.009	19.992	103.899	20.016	2.567	0.372
109.000	132.477	80.010	19.992	103.900	20.017	2.456	0.368
109.500	132.638	80.012	19.993	103.900	20.015	2.581	0.342
110.001	132.851	80.010	19.993	103.901	20.019	2.304	0.354
110.501	132.989	80.010	19.993	103.901	20.018	2.410	0.362
111.000	133.206	80.010	19.993	103.900	20.020	2.262	0.353
111.500	133.389	80.010	19.993	103.899	20.017	2.480	0.378
112.000	133.591	80.010	19.992	103.899	20.019	2.328	0.393
112.501	133.747	80.009	19.992	103.899	20.015	2.607	0.372
113.001	133.956	80.008	19.992	103.899	20.019	2.309	0.361
113.500	134.152	80.012	19.993	103.899	20.016	2.513	0.385
114.000	134.326	80.009	19.993	103.897	20.016	2.519	0.388
114.500	134.505	80.009	19.992	103.896	20.016	2.539	0.361
115.000	134.699	80.010	19.992	103.895	20.017	2.482	0.363
115.500	134.886	80.008	19.992	103.890	20.013	2.751	0.377
116.000	135.093	80.011	19.994	103.885	20.014	2.684	0.387
116.500	135.279	80.008	19.992	103.880	20.016	2.556	0.393
117.000	135.461	80.008	19.994	103.875	20.016	2.513	0.381
117.500	135.646	80.011	19.993	103.869	20.015	2.618	0.368
118.000	135.839	80.010	19.993	103.868	20.013	2.749	0.373
118.501	136.052	80.011	19.994	103.866	20.014	2.648	0.391
119.001	136.255	80.010	19.994	103.871	20.017	2.459	0.411
119.501	136.419	80.009	19.993	103.875	20.013	2.752	0.392
120.001	136.627	80.011	19.994	103.874	20.013	2.776	0.370
120.501	136.797	80.009	19.993	103.877	20.014	2.711	0.375
121.000	136.984	80.010	19.993	103.883	20.012	2.855	0.368
121.500	137.221	80.010	19.993	103.887	20.011	2.867	0.390
122.001	137.392	80.010	19.993	103.890	20.015	2.636	0.416
122.501	137.566	80.011	19.992	103.897	20.014	2.659	0.377
123.000	137.769	80.010	19.993	103.902	20.014	2.651	0.360
123.500	137.959	80.009	19.994	103.903	20.014	2.661	0.385
124.000	138.164	80.011	19.992	103.903	20.017	2.435	0.394
124.500	138.330	80.009	19.994	103.904	20.012	2.826	0.383
125.000	138.530	80.010	19.993	103.903	20.013	2.752	0.369
125.500	138.726	80.011	19.994	103.904	20.013	2.772	0.381
126.001	138.886	80.009	19.992	103.898	20.014	2.663	0.376
126.501	139.091	80.011	19.994	103.896	20.014	2.692	0.361
127.001	139.278	80.009	19.994	103.896	20.016	2.540	0.378
127.500	139.474	80.011	19.994	103.897	20.015	2.587	0.388
128.000	139.637	80.011	19.993	103.896	20.016	2.511	0.371
128.500	139.892	80.011	19.993	103.901	20.015	2.587	0.388
129.000	140.093	80.011	19.993	103.903	20.016	2.511	0.437
129.500	140.297	80.011	19.992	103.903	20.017	2.494	0.431
130.000	140.464	80.011	19.994	103.899	20.014	2.710	0.388
130.500	140.716	80.010	19.993	103.893	20.013	2.751	0.395
131.000	140.889	80.011	19.993	103.892	20.015	2.587	0.422
131.500	141.025	80.010	19.993	103.891	20.015	2.610	0.367
132.000	141.307	80.010	19.992	103.890	20.015	2.643	0.364
132.500	141.448	80.011	19.993	103.895	20.020	2.291	0.421
133.000	141.636	80.009	19.993	103.901	20.015	2.622	0.376
133.500	141.829	80.011	19.993	103.901	20.016	2.566	0.355
134.000	142.059	80.010	19.993	103.896	20.015	2.595	0.403
134.500	142.227	80.010	19.993	103.889	20.014	2.710	0.411
135.000	142.410	80.012	19.993	103.886	20.018	2.414	0.374
135.500	142.666	80.010	19.993	103.886	20.017	2.486	0.395
136.000	142.869	80.011	19.992	103.887	20.016	2.562	0.449
136.500	143.082	80.009	19.994	103.893	20.014	2.692	0.437
137.000	143.272	80.011	19.994	103.899	20.012	2.795	0.409
137.500	143.476	80.011	19.993	103.901	20.015	2.634	0.399
138.000	143.742	80.012	19.993	103.901	20.011	2.861	0.432
138.500	143.921	80.010	19.992	103.902	20.014	2.715	0.457
139.000	144.124	80.011	19.992	103.902	20.011	2.902	0.414
139.500	144.307	80.010	19.993	103.903	20.011	2.879	0.384
140.000	144.540	80.009	19.992	103.903	20.014	2.659	0.401
140.500	144.712	80.010	19.992	103.901	20.015	2.626	0.410
141.000	144.932	80.011	19.995	103.899	20.013	2.778	0.398
141.500	145.170	80.010	19.994	103.900	20.014	2.712	0.425
142.000	145.370	80.009	19.994	103.900	20.015	2.624	0.448
142.500	145.574	80.010	19.994	103.901	20.014	2.678	0.421
143.000	145.810	80.009	19.995	103.897	20.014	2.649	0.422
143.500	145.998	80.010	19.994	103.899	20.012	2.814	0.432
144.000	146.225	80.011	19.994	103.898	20.011	2.865	0.420
144.500	146.416	80.010	19.993	103.899	20.013	2.746	0.416
145.000	146.642	80.012	19.992	103.899	20.014	2.657	0.417
145.500	146.852	80.010	19.994	103.904	20.013	2.741	0.426
146.000	147.067	80.011	19.994	103.905	20.014	2.669	0.431
146.500	147.299	80.011	19.992	103.906	20.013	2.768	0.436
147.000	147.481	80.008	19.993	103.905	20.011	2.908	0.430
147.500	147.657	80.011	19.993	103.899	20.014	2.702	0.386
148.000	147.930	80.010	19.993	103.896	20.012	2.858	0.403
148.500	148.107	80.010	19.993	103.891	20.013	2.774	0.450
149.000	148.319	80.009	19.993	103.887	20.011	2.885	0.420
149.500	148.511	80.010	19.993	103.882	20.010	2.971	0.396
150.000	148.757	80.011	19.992	103.882	20.009	3.015	0.421
150.500	148.964	80.010	19.994	103.880	20.008	3.076	0.446
151.000	149.153	80.010	19.993	103.883	20.013	2.760	0.425
151.500	149.339	80.011	19.993	103.886	20.012	2.803	0.385
152.000	149.584	80.010	19.994	103.892	20.013	2.741	0.403
152.500	149.823	80.011	19.993	103.895	20.013	2.776	0.458
153.000	149.979	80.010	19.993	103.893	20.012	2.851	0.440
153.500	150.259	80.012	19.993	103.889	20.015	2.628	0.415
154.000	150.449	80.013	19.995	103.888	20.014	2.653	0.453
154.500	150.655	80.010	19.993	103.884	20.013	2.744	0.433
155.000	150.907	80.010	19.993	103.886	20.011	2.877	0.427
155.500	151.109	80.011	19.993	103.890	20.013	2.750	0.456
156.000	151.308	80.011	19.993	103.895	20.014	2.709	0.427
156.500	151.553	80.010	19.993	103.896	20.014	2.707	0.422
157.000	151.743	80.009	19.993	103.897	20.009	3.020	0.439
157.500	151.958	80.010	19.994	103.896	20.013	2.765	0.420
158.000	152.170	80.011	19.994	103.899	20.013	2.783	0.416
158.500	152.423	80.010	19.993	103.900	20.011	2.865	0.446
159.000	152.606	80.010	19.993	103.901	20.015	2.592	0.451
159.500	152.849	80.011	19.993	103.904	20.016	2.511	0.431
160.000	153.055	80.009	19.993	103.905	20.015	2.631	0.438
160.500	153.267	80.011	19.993	103.904	20.017	2.474	0.433
161.000	153.490	80.011	19.994	103.903	20.013	2.762	0.426
161.500	153.684	80.010	19.994	103.902	20.015	2.577	0.426
162.001	153.907	80.013	19.994	103.902	20.018	2.408	0.417
162.500	154.126	80.009	19.993	103.899	20.017	2.470	0.429
163.000	154.320	80.010	19.993	103.898	20.015	2.618	0.428
163.500	154.515	80.011	19.992	103.893	20.015	2.591	0.401
164.000	154.763	80.010	19.994	103.888	20.015	2.599	0.416
164.500	155.010	80.008	19.994	103.886	20.013	2.731	0.469
165.000	155.211	80.010	19.993	103.883	20.016	2.511	0.471
165.500	155.418	80.011	19.993	103.879	20.012	2.824	0.428
166.000	155.658	80.011	19.993	103.878	20.010	2.998	0.427
166.500	155.857	80.010	19.993	103.876	20.010	2.955	0.443
167.000	156.093	80.012	19.995	103.870	20.013	2.719	0.437
167.500	156.313	80.011	19.993	103.868	20.008	3.074	0.446
168.000	156.546	80.010	19.994	103.866	20.010	2.971	0.455
168.500	156.757	80.011	19.994	103.865	20.012	2.834	0.448
169.001	156.954	80.011	19.993	103.866	20.010	2.998	0.426
169.500	157.203	80.011	19.993	103.866	20.010	2.953	0.427
170.000	157.449	80.012	19.993	103.871	20.012	2.856	0.470
170.500	157.616	80.010	19.993	103.874	20.009	3.054	0.454
171.000	157.847	80.012	19.992	103.878	20.011	2.881	0.406
171.500	158.084	80.009	19.993	103.885	20.013	2.772	0.433
172.000	158.296	80.010	19.993	103.891	20.012	2.811	0.459
172.500	158.494	80.010	19.994	103.892	20.013	2.776	0.429
