Sample ID:	C:\MCC\PMMA_MCC_30K_min_210920_R2.txt
Sample Weight (mg):	4.76
Heating Rate (C/s):	0.5
Combustor Temp (C):	900
N2 Flow Rate (cc/min):	80
O2 Flow Rate (cc/min):	20
Calibration File:	C:\MCC\MCC Cal\Coeff1 JN10440_30_210304.txt.txt
T Correction Coefficients:	0	1.024463	0
Time Shift (s):	14
*
Time (s)	Temperature (C)	N2 flow rate (cc/min)	O2 flow rate (cc/min)	Flow Rate (cc/min)	Oxygen (%)	HRR (W/g)	Heating rate (C/s)
0.000	108.968	79.994	19.994	99.959	20.325	-0.211	-0.019
0.500	108.984	79.994	19.995	99.958	20.327	-0.309	-0.038
1.000	109.011	79.994	19.994	99.957	20.326	-0.222	0.007
1.500	109.018	79.995	19.993	99.957	20.327	-0.284	0.039
2.000	108.969	79.994	19.994	99.957	20.325	-0.184	-0.004
2.499	109.012	79.994	19.994	99.958	20.327	-0.300	-0.024
2.999	109.000	79.994	19.993	99.959	20.323	-0.086	0.012
3.499	108.979	79.995	19.995	99.959	20.324	-0.125	-0.001
3.999	109.012	79.995	19.994	99.960	20.325	-0.197	-0.011
4.499	108.992	79.995	19.994	99.959	20.325	-0.166	0.012
4.999	108.994	79.995	19.994	99.959	20.325	-0.197	-0.003
5.499	108.974	79.996	19.994	99.958	20.322	-0.004	-0.018
5.999	108.991	79.995	19.994	99.957	20.324	-0.113	-0.010
6.499	108.975	79.995	19.993	99.957	20.324	-0.129	-0.001
6.999	108.966	79.995	19.993	99.957	20.323	-0.023	-0.011
7.499	108.985	79.994	19.995	99.957	20.326	-0.268	-0.007
8.000	108.966	79.995	19.994	99.959	20.327	-0.284	0.005
8.501	108.992	79.993	19.994	99.960	20.324	-0.143	0.003
9.000	108.971	79.996	19.993	99.960	20.325	-0.188	0.006
9.499	108.961	79.994	19.993	99.962	20.325	-0.200	-0.013
9.999	108.978	79.997	19.993	99.965	20.327	-0.326	-0.012
10.499	109.006	79.996	19.994	99.964	20.324	-0.106	0.026
10.999	108.974	79.996	19.994	99.969	20.324	-0.134	0.020
11.500	108.984	79.995	19.994	99.974	20.322	0.005	-0.013
12.000	108.978	79.995	19.994	99.973	20.322	-0.014	-0.009
12.499	108.984	79.996	19.994	99.976	20.324	-0.111	0.002
12.999	108.979	79.996	19.995	99.982	20.321	0.070	0.000
13.500	109.004	79.996	19.993	99.985	20.321	0.095	0.010
14.000	108.970	79.998	19.994	99.987	20.322	0.030	0.005
14.499	109.002	79.997	19.993	99.993	20.319	0.186	-0.006
14.999	108.988	79.998	19.994	99.996	20.317	0.335	0.008
15.499	108.990	79.996	19.994	99.998	20.320	0.170	0.003
15.999	108.988	79.996	19.993	100.006	20.315	0.451	-0.006
16.499	109.001	79.997	19.994	100.013	20.311	0.713	0.006
16.999	108.999	79.997	19.994	100.020	20.313	0.607	0.011
17.499	109.010	79.996	19.994	100.028	20.312	0.679	0.010
17.999	109.020	79.995	19.993	100.038	20.307	0.967	0.015
18.499	108.994	79.997	19.994	100.046	20.309	0.868	0.003
18.999	109.016	79.995	19.992	100.054	20.308	0.906	-0.010
19.499	109.022	79.997	19.994	100.064	20.306	1.060	0.012
19.999	109.018	79.997	19.993	100.080	20.303	1.237	0.015
20.499	109.044	79.997	19.995	100.092	20.305	1.155	0.012
20.999	109.088	79.996	19.993	100.099	20.301	1.404	0.046
21.500	109.077	79.995	19.994	100.111	20.301	1.357	0.051
22.000	109.130	79.997	19.994	100.122	20.298	1.581	0.038
22.499	109.143	79.997	19.994	100.128	20.298	1.588	0.054
22.999	109.180	79.996	19.994	100.136	20.297	1.626	0.058
23.499	109.242	79.997	19.994	100.145	20.293	1.926	0.074
23.999	109.245	79.995	19.994	100.150	20.293	1.907	0.083
24.499	109.300	79.995	19.994	100.152	20.292	1.950	0.062
24.999	109.307	79.996	19.993	100.155	20.291	2.032	0.060
25.499	109.362	79.996	19.993	100.156	20.292	1.952	0.061
25.999	109.386	79.995	19.995	100.157	20.290	2.109	0.071
26.499	109.430	79.995	19.994	100.160	20.290	2.106	0.073
27.000	109.473	79.995	19.994	100.162	20.287	2.278	0.077
27.500	109.524	79.996	19.994	100.162	20.284	2.478	0.091
28.000	109.566	79.996	19.995	100.162	20.288	2.219	0.094
28.501	109.619	79.996	19.995	100.162	20.284	2.532	0.094
29.000	109.713	79.997	19.994	100.160	20.286	2.405	0.121
29.499	109.739	79.996	19.994	100.161	20.285	2.460	0.133
29.999	109.813	79.996	19.994	100.164	20.283	2.591	0.110
30.499	109.851	79.997	19.994	100.165	20.285	2.437	0.106
30.999	109.941	79.997	19.993	100.170	20.283	2.562	0.120
31.500	109.976	79.997	19.993	100.175	20.284	2.474	0.126
32.000	110.061	79.997	19.993	100.174	20.283	2.560	0.123
32.499	110.105	79.997	19.993	100.172	20.285	2.455	0.125
32.999	110.183	79.997	19.994	100.178	20.284	2.497	0.126
33.499	110.215	79.998	19.995	100.174	20.286	2.360	0.116
33.999	110.370	79.998	19.994	100.170	20.283	2.578	0.148
34.499	110.388	79.997	19.993	100.168	20.287	2.329	0.180
34.999	110.494	79.996	19.993	100.168	20.283	2.596	0.149
35.499	110.586	79.997	19.993	100.162	20.287	2.324	0.161
36.000	110.667	79.997	19.994	100.164	20.285	2.463	0.186
36.500	110.709	79.997	19.994	100.169	20.283	2.578	0.148
36.999	110.794	79.997	19.994	100.175	20.285	2.463	0.125
37.499	110.874	79.998	19.993	100.181	20.284	2.515	0.145
38.000	110.964	79.997	19.994	100.186	20.283	2.571	0.167
38.501	111.073	79.999	19.993	100.189	20.282	2.614	0.185
39.000	111.148	79.998	19.992	100.187	20.282	2.640	0.192
39.499	111.230	79.998	19.993	100.186	20.284	2.496	0.170
39.999	111.333	79.998	19.993	100.184	20.285	2.464	0.171
40.499	111.443	79.998	19.993	100.180	20.281	2.678	0.199
40.999	111.521	79.998	19.993	100.173	20.283	2.544	0.200
41.499	111.587	79.998	19.994	100.171	20.282	2.665	0.166
41.999	111.696	79.997	19.993	100.167	20.280	2.777	0.160
42.499	111.801	79.999	19.993	100.165	20.280	2.796	0.194
42.999	111.901	79.997	19.993	100.165	20.283	2.587	0.209
43.500	112.004	79.998	19.993	100.165	20.282	2.627	0.204
44.000	112.095	79.996	19.994	100.163	20.282	2.659	0.199
44.499	112.164	79.997	19.993	100.163	20.282	2.653	0.177
44.999	112.298	79.997	19.993	100.159	20.280	2.801	0.181
45.500	112.388	79.996	19.993	100.156	20.283	2.602	0.214
46.000	112.496	79.996	19.994	100.153	20.280	2.765	0.211
46.501	112.609	79.997	19.993	100.153	20.283	2.552	0.209
47.000	112.717	79.996	19.994	100.153	20.283	2.556	0.221
47.499	112.837	79.996	19.994	100.153	20.282	2.609	0.224
47.999	112.930	79.996	19.994	100.154	20.280	2.785	0.220
48.499	113.048	79.995	19.994	100.157	20.279	2.810	0.212
48.999	113.134	79.995	19.995	100.160	20.281	2.703	0.208
49.499	113.229	79.994	19.994	100.158	20.282	2.644	0.193
49.999	113.366	79.995	19.994	100.134	20.281	2.701	0.206
50.499	113.461	79.995	19.994	100.113	20.279	2.818	0.232
50.999	113.590	79.994	19.994	100.100	20.275	3.076	0.228
51.500	113.683	79.994	19.995	100.091	20.276	3.036	0.223
52.000	113.833	79.994	19.994	100.092	20.275	3.076	0.232
52.499	113.942	79.994	19.995	100.120	20.276	3.029	0.250
52.999	114.066	79.995	19.995	100.180	20.276	3.002	0.246
53.499	114.174	79.994	19.994	100.221	20.279	2.809	0.233
53.999	114.297	79.994	19.995	100.242	20.277	2.952	0.232
54.499	114.402	79.995	19.994	100.251	20.277	2.991	0.230
54.999	114.521	79.996	19.994	100.255	20.277	2.959	0.226
55.499	114.681	79.994	19.995	100.224	20.277	2.964	0.251
55.999	114.777	79.996	19.994	100.203	20.277	2.998	0.268
56.499	114.897	79.995	19.995	100.196	20.276	3.041	0.236
56.999	115.002	79.994	19.995	100.194	20.278	2.885	0.220
57.499	115.142	79.994	19.994	100.194	20.274	3.134	0.235
57.999	115.230	79.995	19.994	100.194	20.275	3.126	0.237
58.499	115.400	79.996	19.995	100.200	20.275	3.074	0.243
58.999	115.530	79.996	19.995	100.207	20.274	3.140	0.278
59.499	115.669	79.995	19.995	100.214	20.275	3.094	0.285
60.000	115.825	79.995	19.994	100.221	20.274	3.196	0.282
60.501	115.918	79.995	19.994	100.224	20.275	3.090	0.272
61.000	116.064	79.995	19.995	100.224	20.273	3.224	0.244
61.500	116.229	79.995	19.995	100.223	20.272	3.301	0.275
61.999	116.387	79.995	19.994	100.221	20.268	3.545	0.317
62.499	116.482	79.996	19.994	100.221	20.270	3.425	0.288
62.999	116.694	79.996	19.993	100.223	20.269	3.490	0.280
63.499	116.787	79.996	19.994	100.223	20.268	3.569	0.306
63.999	116.953	79.996	19.994	100.220	20.270	3.420	0.282
64.499	117.087	79.995	19.994	100.215	20.268	3.549	0.280
64.999	117.227	79.997	19.994	100.210	20.268	3.540	0.287
65.499	117.417	79.995	19.995	100.210	20.268	3.542	0.302
65.999	117.534	79.994	19.994	100.205	20.272	3.311	0.318
66.499	117.680	79.996	19.993	100.203	20.269	3.490	0.285
66.999	117.830	79.995	19.994	100.202	20.272	3.312	0.280
67.499	117.983	79.994	19.994	100.203	20.268	3.584	0.300
67.999	118.161	79.995	19.994	100.203	20.267	3.629	0.317
68.499	118.286	79.995	19.995	100.210	20.266	3.661	0.317
68.999	118.468	79.996	19.995	100.214	20.267	3.627	0.305
69.499	118.632	79.995	19.995	100.220	20.264	3.837	0.327
69.999	118.787	79.996	19.996	100.225	20.267	3.628	0.333
70.499	118.946	79.996	19.995	100.223	20.268	3.558	0.316
70.999	119.138	79.995	19.994	100.215	20.269	3.523	0.332
71.499	119.243	79.996	19.994	100.215	20.269	3.466	0.324
71.999	119.447	79.997	19.995	100.213	20.268	3.577	0.303
72.499	119.617	79.995	19.995	100.213	20.267	3.622	0.342
72.999	119.770	79.995	19.994	100.217	20.265	3.774	0.349
73.499	119.940	79.995	19.995	100.222	20.268	3.532	0.323
73.999	120.140	79.996	19.994	100.226	20.266	3.677	0.346
74.499	120.300	79.995	19.994	100.229	20.269	3.525	0.365
74.999	120.447	79.994	19.994	100.230	20.267	3.613	0.333
75.499	120.612	79.994	19.995	100.230	20.266	3.660	0.310
76.000	120.785	79.995	19.995	100.232	20.268	3.540	0.325
76.501	120.966	79.995	19.994	100.230	20.267	3.613	0.346
76.999	121.124	79.994	19.996	100.229	20.265	3.758	0.347
77.499	121.338	79.995	19.994	100.227	20.264	3.807	0.355
77.999	121.486	79.995	19.995	100.226	20.264	3.834	0.367
78.499	121.652	79.996	19.996	100.220	20.262	3.966	0.338
78.999	121.833	79.995	19.995	100.218	20.260	4.058	0.331
79.499	122.033	79.994	19.994	100.217	20.259	4.172	0.364
79.999	122.196	79.996	19.996	100.217	20.261	3.993	0.372
80.499	122.406	79.994	19.995	100.217	20.257	4.296	0.368
80.999	122.592	79.994	19.996	100.222	20.257	4.285	0.385
81.499	122.777	79.995	19.995	100.223	20.263	3.873	0.383
81.999	122.926	79.993	19.995	100.218	20.259	4.172	0.352
82.499	123.133	79.995	19.996	100.217	20.260	4.081	0.345
82.999	123.277	79.994	19.995	100.214	20.261	4.031	0.354
83.499	123.480	79.995	19.996	100.209	20.259	4.146	0.349
83.999	123.684	79.995	19.996	100.208	20.257	4.298	0.377
84.499	123.871	79.994	19.995	100.213	20.260	4.058	0.399
84.999	124.067	79.994	19.995	100.215	20.255	4.407	0.387
85.499	124.258	79.994	19.996	100.216	20.259	4.167	0.385
85.999	124.442	79.994	19.996	100.221	20.258	4.248	0.382
86.499	124.616	79.996	19.995	100.224	20.259	4.130	0.367
86.999	124.838	79.994	19.995	100.226	20.258	4.217	0.377
87.499	125.028	79.995	19.995	100.225	20.258	4.228	0.404
87.999	125.200	79.995	19.996	100.226	20.260	4.104	0.387
88.499	125.435	79.994	19.995	100.226	20.256	4.348	0.384
88.999	125.636	79.996	19.995	100.226	20.260	4.112	0.422
89.499	125.820	79.996	19.995	100.225	20.257	4.293	0.411
89.999	125.994	79.995	19.995	100.226	20.259	4.182	0.372
90.499	126.197	79.996	19.995	100.228	20.254	4.502	0.368
90.999	126.379	79.996	19.995	100.229	20.255	4.425	0.381
91.500	126.566	79.997	19.994	100.230	20.252	4.611	0.377
91.999	126.798	79.997	19.994	100.231	20.256	4.366	0.394
92.499	126.930	79.997	19.994	100.232	20.255	4.423	0.392
92.999	127.149	79.997	19.994	100.232	20.257	4.312	0.357
93.499	127.340	79.997	19.994	100.232	20.254	4.477	0.380
93.999	127.528	79.996	19.994	100.232	20.256	4.368	0.395
94.499	127.722	79.997	19.994	100.232	20.252	4.592	0.380
94.999	127.930	79.997	19.993	100.233	20.250	4.751	0.392
95.499	128.160	79.996	19.994	100.233	20.251	4.689	0.420
95.999	128.387	79.999	19.994	100.233	20.251	4.703	0.448
96.499	128.572	79.998	19.995	100.233	20.250	4.742	0.434
96.999	128.776	79.997	19.994	100.233	20.247	4.907	0.400
97.499	128.982	79.998	19.994	100.234	20.249	4.784	0.399
97.999	129.200	79.998	19.994	100.233	20.247	4.959	0.417
98.499	129.400	79.998	19.994	100.233	20.247	4.918	0.421
98.999	129.604	79.997	19.994	100.234	20.244	5.156	0.411
99.499	129.840	79.996	19.993	100.234	20.243	5.210	0.422
99.999	130.033	79.998	19.994	100.233	20.245	5.087	0.435
100.499	130.227	79.996	19.994	100.234	20.241	5.357	0.409
100.999	130.449	79.997	19.994	100.234	20.242	5.271	0.401
101.499	130.629	79.998	19.994	100.233	20.243	5.233	0.409
101.999	130.897	79.998	19.993	100.233	20.241	5.346	0.425
102.499	131.057	79.997	19.994	100.233	20.241	5.328	0.438
102.999	131.270	79.997	19.994	100.233	20.242	5.244	0.401
103.499	131.491	79.998	19.994	100.233	20.240	5.382	0.403
103.999	131.720	79.998	19.994	100.234	20.241	5.363	0.442
104.499	131.928	79.997	19.994	100.234	20.239	5.440	0.443
104.999	132.167	79.996	19.994	100.234	20.237	5.583	0.442
105.500	132.355	79.998	19.994	100.234	20.237	5.578	0.437
106.001	132.562	79.997	19.994	100.236	20.237	5.614	0.411
106.500	132.791	79.996	19.994	100.236	20.233	5.863	0.416
106.999	133.002	79.997	19.993	100.236	20.237	5.605	0.438
107.499	133.181	79.996	19.993	100.236	20.235	5.713	0.415
107.999	133.438	79.995	19.995	100.236	20.232	5.907	0.413
108.500	133.642	79.996	19.995	100.235	20.233	5.849	0.448
108.999	133.881	79.996	19.994	100.240	20.233	5.840	0.452
109.499	134.096	79.996	19.993	100.240	20.233	5.859	0.449
109.999	134.312	79.996	19.993	100.240	20.234	5.771	0.442
110.499	134.548	79.996	19.994	100.240	20.233	5.875	0.441
111.000	134.746	79.997	19.994	100.239	20.233	5.848	0.443
111.500	134.985	79.995	19.994	100.235	20.232	5.916	0.436
112.000	135.197	79.996	19.994	100.235	20.234	5.809	0.444
112.500	135.422	79.996	19.994	100.235	20.234	5.773	0.444
113.000	135.613	79.996	19.994	100.236	20.232	5.926	0.426
113.500	135.859	79.996	19.994	100.237	20.237	5.625	0.426
113.999	136.105	79.998	19.994	100.238	20.233	5.863	0.465
114.499	136.310	79.997	19.994	100.242	20.232	5.899	0.472
114.999	136.549	79.998	19.993	100.246	20.233	5.891	0.448
115.499	136.735	79.998	19.994	100.245	20.228	6.157	0.435
115.999	137.001	79.998	19.993	100.245	20.228	6.196	0.439
116.499	137.162	79.998	19.994	100.246	20.227	6.240	0.440
116.999	137.429	79.998	19.994	100.248	20.228	6.156	0.427
117.499	137.670	79.999	19.994	100.249	20.225	6.373	0.468
117.999	137.900	79.999	19.994	100.254	20.224	6.425	0.489
118.499	138.122	79.998	19.994	100.257	20.226	6.344	0.462
118.999	138.338	79.999	19.994	100.261	20.225	6.404	0.445
119.500	138.544	79.999	19.993	100.256	20.224	6.443	0.430
120.000	138.797	79.998	19.994	100.254	20.223	6.529	0.440
120.501	139.060	79.999	19.993	100.251	20.220	6.717	0.488
121.001	139.277	79.998	19.994	100.249	20.220	6.710	0.498
121.500	139.501	79.999	19.993	100.242	20.221	6.622	0.460
121.999	139.737	79.999	19.994	100.241	20.220	6.742	0.450
122.499	139.939	79.998	19.993	100.242	20.217	6.883	0.449
122.999	140.224	79.998	19.994	100.247	20.215	7.041	0.462
123.499	140.441	79.999	19.994	100.251	20.217	6.914	0.494
123.999	140.655	80.000	19.994	100.255	20.215	7.038	0.467
124.499	140.931	79.999	19.993	100.257	20.217	6.896	0.461
124.999	141.125	79.999	19.994	100.257	20.215	7.018	0.480
125.499	141.383	80.000	19.994	100.251	20.215	7.070	0.461
125.999	141.667	79.998	19.994	100.245	20.215	7.045	0.497
126.500	141.872	79.999	19.994	100.246	20.213	7.181	0.515
127.000	142.118	79.999	19.993	100.245	20.212	7.231	0.469
127.499	142.364	79.999	19.995	100.241	20.211	7.303	0.472
128.000	142.604	79.996	19.993	100.243	20.210	7.382	0.490
128.500	142.830	79.997	19.993	100.243	20.211	7.285	0.476
128.999	143.093	79.998	19.994	100.242	20.211	7.323	0.477
129.499	143.340	79.998	19.994	100.241	20.209	7.442	0.500
129.999	143.559	79.996	19.994	100.243	20.206	7.640	0.488
130.499	143.802	79.996	19.993	100.243	20.208	7.486	0.464
130.999	144.072	79.996	19.994	100.242	20.206	7.651	0.487
131.499	144.306	79.995	19.993	100.239	20.207	7.545	0.508
131.999	144.528	79.997	19.993	100.239	20.206	7.632	0.480
132.499	144.793	79.996	19.994	100.236	20.204	7.785	0.472
132.999	145.020	79.996	19.994	100.234	20.202	7.919	0.490
133.499	145.299	79.996	19.994	100.236	20.200	8.050	0.499
133.999	145.491	79.994	19.993	100.237	20.200	8.000	0.488
134.499	145.745	79.995	19.994	100.238	20.201	7.975	0.459
134.999	146.011	79.995	19.993	100.237	20.202	7.895	0.484
135.499	146.225	79.995	19.994	100.238	20.196	8.275	0.500
135.999	146.466	79.995	19.994	100.239	20.196	8.268	0.467
136.499	146.757	79.995	19.994	100.237	20.195	8.361	0.493
136.999	146.972	79.994	19.994	100.236	20.193	8.487	0.519
137.499	147.234	79.996	19.994	100.236	20.195	8.381	0.491
137.999	147.457	79.996	19.994	100.236	20.192	8.571	0.481
138.499	147.705	79.997	19.994	100.237	20.187	8.892	0.478
138.999	147.948	79.997	19.994	100.240	20.189	8.751	0.481
139.499	148.212	79.996	19.994	100.245	20.186	8.959	0.499
139.999	148.473	79.996	19.994	100.248	20.188	8.787	0.517
140.499	148.715	79.995	19.995	100.251	20.188	8.844	0.514
140.999	148.978	79.995	19.995	100.249	20.185	8.991	0.504
141.499	149.196	79.997	19.994	100.246	20.187	8.897	0.492
141.999	149.488	79.997	19.994	100.244	20.183	9.115	0.496
142.499	149.714	79.996	19.994	100.240	20.184	9.094	0.514
142.999	149.923	79.995	19.994	100.237	20.183	9.173	0.476
143.499	150.248	79.995	19.995	100.241	20.183	9.152	0.484
143.999	150.451	79.997	19.994	100.242	20.180	9.334	0.531
144.499	150.727	79.996	19.995	100.239	20.178	9.456	0.504
144.999	150.953	79.997	19.996	100.240	20.182	9.179	0.491
145.499	151.179	79.996	19.995	100.239	20.179	9.423	0.477
145.999	151.429	79.996	19.995	100.234	20.177	9.516	0.464
146.499	151.689	79.997	19.995	100.233	20.178	9.473	0.493
146.999	151.931	79.995	19.995	100.232	20.176	9.600	0.506
147.499	152.201	79.997	19.994	100.233	20.175	9.682	0.507
147.999	152.465	79.996	19.995	100.234	20.173	9.804	0.524
148.499	152.688	79.996	19.995	100.235	20.169	10.081	0.510
148.999	152.962	79.996	19.995	100.237	20.168	10.126	0.491
149.499	153.178	79.995	19.995	100.240	20.168	10.141	0.494
149.999	153.403	79.997	19.995	100.243	20.167	10.200	0.466
150.499	153.660	79.996	19.995	100.244	20.168	10.127	0.462
150.999	153.881	79.996	19.995	100.244	20.165	10.351	0.480
151.499	154.157	79.996	19.995	100.242	20.166	10.263	0.488
151.999	154.417	79.995	19.995	100.239	20.165	10.358	0.516
152.499	154.673	79.995	19.994	100.237	20.165	10.297	0.526
152.999	154.883	79.996	19.995	100.233	20.163	10.442	0.491
153.499	155.151	79.995	19.994	100.233	20.162	10.524	0.472
153.999	155.351	79.995	19.994	100.236	20.162	10.510	0.473
154.499	155.643	79.995	19.995	100.238	20.161	10.558	0.480
154.999	155.899	79.995	19.994	100.237	20.161	10.576	0.520
155.499	156.134	79.995	19.994	100.238	20.161	10.608	0.520
155.999	156.418	79.997	19.995	100.242	20.156	10.933	0.505
156.499	156.683	79.994	19.994	100.242	20.157	10.847	0.533
156.999	156.936	79.995	19.994	100.241	20.156	10.943	0.533
157.499	157.181	79.996	19.994	100.242	20.154	11.052	0.508
157.999	157.426	79.995	19.993	100.244	20.154	11.024	0.494
158.499	157.670	79.996	19.995	100.239	20.157	10.855	0.490
158.999	157.938	79.995	19.994	100.237	20.155	10.995	0.501
159.499	158.202	79.994	19.994	100.237	20.153	11.110	0.522
159.999	158.443	79.995	19.994	100.236	20.151	11.219	0.519
160.499	158.682	79.996	19.993	100.238	20.150	11.286	0.493
160.999	158.926	79.997	19.994	100.241	20.148	11.427	0.481
161.499	159.180	79.995	19.994	100.241	20.150	11.339	0.490
161.999	159.452	79.996	19.994	100.242	20.146	11.585	0.512
162.499	159.678	79.996	19.994	100.243	20.145	11.637	0.512
162.999	159.932	79.994	19.994	100.241	20.145	11.636	0.489
163.499	160.190	79.996	19.994	100.240	20.146	11.576	0.496
163.999	160.433	79.993	19.994	100.239	20.142	11.816	0.507
164.499	160.707	79.993	19.995	100.238	20.145	11.626	0.509
164.999	160.931	79.994	19.995	100.238	20.140	11.975	0.507
165.499	161.187	79.996	19.995	100.236	20.141	11.916	0.489
165.999	161.445	79.994	19.995	100.237	20.143	11.791	0.497
166.499	161.705	79.993	19.995	100.238	20.141	11.934	0.516
167.000	161.979	79.996	19.994	100.237	20.140	11.971	0.526
167.499	162.182	79.995	19.995	100.238	20.136	12.258	0.506
167.999	162.460	79.994	19.994	100.237	20.139	12.005	0.479
168.499	162.715	79.994	19.995	100.236	20.135	12.294	0.507
168.999	162.953	79.995	19.995	100.235	20.138	12.104	0.512
169.499	163.216	79.995	19.995	100.235	20.138	12.109	0.497
169.999	163.491	79.994	19.994	100.235	20.136	12.254	0.520
170.499	163.716	79.995	19.996	100.234	20.137	12.151	0.519
170.999	164.005	79.995	19.995	100.236	20.136	12.253	0.507
171.499	164.269	79.995	19.995	100.238	20.135	12.269	0.534
171.999	164.500	79.994	19.996	100.239	20.136	12.209	0.524
172.500	164.771	79.994	19.995	100.239	20.133	12.421	0.498
