Sample ID:	C:\MCC\MCC Cal\Test\Fiberglas_Inaulation1_MCC_30K_min_220124_R2.txt
Sample Weight (mg):	4.78
Heating Rate (C/s):	0.5
Combustor Temp (C):	900
N2 Flow Rate (cc/min):	80
O2 Flow Rate (cc/min):	20
Calibration File:	C:\MCC\MCC Cal\Coeff1 JN10440_30_210304.txt.txt
T Correction Coefficients:	0	1.024463	0
Time Shift (s):	14
*
Time (s)	Temperature (C)	N2 flow rate (cc/min)	O2 flow rate (cc/min)	Flow Rate (cc/min)	Oxygen (%)	HRR (W/g)	Heating rate (C/s)
-0.001	113.134	80.005	19.993	103.752	20.131	0.223	-0.019
0.499	113.172	80.009	19.994	103.750	20.136	-0.092	-0.017
0.999	113.144	79.995	19.994	103.749	20.133	0.060	0.004
1.499	113.187	80.010	19.991	103.745	20.136	-0.126	0.012
1.999	113.144	80.005	19.994	103.748	20.137	-0.163	0.008
2.499	113.126	80.000	19.995	103.746	20.133	0.107	-0.030
2.999	113.159	80.008	19.992	103.746	20.136	-0.101	-0.023
3.499	113.183	80.020	19.993	103.747	20.132	0.174	0.036
3.999	113.175	80.006	19.997	103.750	20.133	0.098	0.037
4.499	113.150	80.011	19.994	103.745	20.134	0.041	-0.008
4.999	113.117	80.011	19.993	103.747	20.133	0.073	-0.046
5.499	113.134	80.007	19.998	103.750	20.132	0.141	-0.038
6.000	113.168	80.008	19.995	103.745	20.132	0.141	0.017
6.500	113.170	80.014	19.993	103.746	20.133	0.071	0.044
6.999	113.148	80.006	19.993	103.749	20.135	-0.071	0.008
7.499	113.136	79.990	19.996	103.748	20.133	0.084	-0.027
7.999	113.140	79.992	19.997	103.744	20.134	0.032	-0.021
8.499	113.136	79.993	19.995	103.747	20.137	-0.203	-0.004
8.999	113.145	80.000	19.996	103.745	20.135	-0.058	0.002
9.499	113.170	80.011	19.996	103.739	20.132	0.133	0.020
9.999	113.148	79.992	19.994	103.736	20.132	0.126	0.018
10.499	113.168	80.016	19.994	103.735	20.134	0.047	0.001
10.999	113.136	80.017	19.992	103.737	20.133	0.096	-0.007
11.499	113.160	79.999	19.995	103.738	20.130	0.278	-0.010
11.999	113.100	80.016	19.994	103.743	20.132	0.120	-0.022
12.499	113.155	80.003	19.993	103.748	20.134	0.039	-0.021
12.999	113.147	80.011	19.993	103.757	20.129	0.347	0.021
13.499	113.132	80.018	19.994	103.764	20.131	0.195	0.012
13.999	113.105	80.014	19.993	103.771	20.130	0.315	-0.032
14.499	113.088	80.016	19.994	103.778	20.132	0.150	-0.043
14.999	113.133	80.018	19.992	103.783	20.129	0.340	-0.009
15.499	113.105	80.004	19.993	103.787	20.128	0.390	0.022
15.999	113.139	80.013	19.994	103.789	20.126	0.536	0.012
16.499	113.148	80.005	19.997	103.796	20.125	0.597	0.025
16.999	113.138	80.002	19.995	103.805	20.127	0.488	0.021
17.499	113.121	80.008	19.996	103.809	20.125	0.630	-0.014
17.999	113.130	80.011	19.994	103.811	20.126	0.574	-0.018
18.499	113.186	80.003	19.994	103.815	20.123	0.779	0.029
18.999	113.184	80.019	19.992	103.816	20.122	0.833	0.060
19.500	113.179	80.002	19.992	103.823	20.122	0.807	0.023
20.000	113.176	80.011	19.992	103.836	20.121	0.876	-0.008
20.499	113.174	80.008	19.993	103.847	20.120	0.928	-0.006
20.999	113.197	80.013	19.992	103.851	20.116	1.242	0.008
21.499	113.206	80.009	19.995	103.856	20.117	1.174	0.026
21.999	113.269	80.021	19.992	103.854	20.119	1.058	0.053
22.499	113.272	80.020	19.992	103.852	20.118	1.099	0.069
22.999	113.314	80.006	19.993	103.853	20.116	1.245	0.055
23.499	113.290	80.011	19.993	103.852	20.114	1.371	0.032
23.999	113.279	80.003	19.994	103.847	20.117	1.191	-0.008
24.499	113.352	80.014	19.993	103.838	20.117	1.183	0.013
24.999	113.392	80.009	19.993	103.826	20.115	1.275	0.088
25.499	113.361	80.006	19.994	103.821	20.118	1.099	0.061
25.999	113.410	79.997	19.992	103.819	20.120	0.964	0.014
26.499	113.422	80.004	19.993	103.822	20.119	1.056	0.040
26.999	113.440	80.004	19.995	103.825	20.121	0.923	0.045
27.499	113.513	80.013	19.991	103.828	20.120	0.972	0.060
27.999	113.503	80.013	19.993	103.828	20.118	1.086	0.077
28.499	113.562	80.012	19.993	103.831	20.120	0.966	0.056
28.999	113.602	80.000	19.994	103.831	20.117	1.146	0.074
29.499	113.653	80.007	19.994	103.829	20.122	0.820	0.095
29.999	113.630	79.987	19.995	103.828	20.118	1.083	0.060
30.499	113.688	79.997	19.994	103.823	20.119	0.998	0.031
30.999	113.703	80.004	19.995	103.817	20.124	0.692	0.054
31.499	113.726	80.004	19.993	103.807	20.120	0.933	0.055
31.999	113.798	80.011	19.993	103.805	20.119	1.010	0.067
32.499	113.798	79.999	19.994	103.806	20.121	0.893	0.083
32.999	113.881	80.008	19.992	103.807	20.123	0.777	0.077
33.499	113.882	80.006	19.995	103.805	20.119	1.045	0.083
33.999	113.921	80.006	19.994	103.807	20.123	0.755	0.062
34.499	113.953	80.004	19.995	103.805	20.123	0.755	0.056
34.999	113.970	80.008	19.996	103.798	20.121	0.888	0.060
35.499	113.995	80.013	19.994	103.791	20.122	0.813	0.046
35.999	114.073	80.010	19.994	103.792	20.119	1.027	0.072
36.499	114.084	80.005	19.995	103.799	20.123	0.742	0.096
36.999	114.137	80.011	19.992	103.806	20.118	1.093	0.077
37.499	114.161	80.006	19.995	103.820	20.119	0.999	0.071
37.999	114.188	80.005	19.997	103.828	20.119	0.997	0.064
38.499	114.234	80.004	19.995	103.832	20.117	1.188	0.062
38.999	114.275	80.002	19.994	103.831	20.114	1.353	0.080
39.500	114.338	80.006	19.994	103.834	20.112	1.473	0.096
40.000	114.397	80.005	19.994	103.835	20.115	1.282	0.113
40.499	114.458	80.008	19.994	103.845	20.113	1.436	0.121
40.999	114.476	80.001	19.996	103.854	20.113	1.430	0.100
41.499	114.537	79.998	19.995	103.859	20.114	1.361	0.079
41.999	114.569	80.006	19.994	103.864	20.115	1.329	0.086
42.499	114.625	80.006	19.994	103.864	20.113	1.413	0.090
42.999	114.692	80.012	19.993	103.864	20.115	1.304	0.105
43.499	114.708	80.008	19.994	103.866	20.111	1.563	0.103
43.999	114.739	80.007	19.994	103.873	20.110	1.638	0.065
44.499	114.846	80.000	19.995	103.880	20.107	1.833	0.092
44.999	114.893	80.006	19.993	103.888	20.112	1.505	0.146
45.499	114.909	80.006	19.997	103.892	20.108	1.751	0.108
45.999	114.976	80.006	19.997	103.899	20.110	1.646	0.073
46.499	115.016	80.011	19.994	103.903	20.110	1.670	0.095
46.999	115.092	80.007	19.995	103.904	20.109	1.740	0.112
47.499	115.156	80.009	19.996	103.905	20.110	1.642	0.128
47.999	115.206	80.006	19.995	103.907	20.108	1.790	0.127
48.499	115.254	80.008	19.993	103.901	20.112	1.498	0.105
48.999	115.360	80.006	19.995	103.894	20.110	1.636	0.126
49.499	115.381	80.002	19.995	103.886	20.111	1.571	0.141
49.999	115.478	80.005	19.994	103.879	20.108	1.766	0.123
50.499	115.565	80.004	19.995	103.873	20.105	1.997	0.151
50.999	115.611	80.013	19.991	103.876	20.108	1.776	0.158
51.499	115.642	80.005	19.995	103.883	20.105	1.954	0.105
52.000	115.745	80.011	19.992	103.883	20.107	1.864	0.106
52.500	115.793	80.010	19.993	103.884	20.110	1.656	0.143
52.999	115.884	80.000	19.993	103.883	20.107	1.821	0.145
53.499	115.954	80.012	19.992	103.879	20.111	1.594	0.150
53.999	116.020	80.006	19.992	103.870	20.108	1.765	0.148
54.499	116.148	80.008	19.994	103.871	20.111	1.545	0.165
54.999	116.186	80.006	19.992	103.869	20.112	1.521	0.181
55.500	116.274	80.005	19.992	103.869	20.113	1.444	0.146
56.000	116.330	80.015	19.993	103.869	20.111	1.577	0.135
56.499	116.444	80.007	19.994	103.869	20.113	1.447	0.157
56.999	116.535	80.008	19.993	103.868	20.114	1.337	0.187
57.499	116.579	80.004	19.994	103.870	20.114	1.348	0.170
57.999	116.637	80.002	19.993	103.869	20.113	1.470	0.119
58.499	116.737	80.000	19.994	103.869	20.112	1.485	0.130
58.999	116.825	80.006	19.993	103.867	20.115	1.297	0.173
59.499	116.894	80.008	19.992	103.868	20.109	1.703	0.173
59.999	116.941	80.002	19.994	103.868	20.113	1.432	0.137
60.499	117.043	80.007	19.993	103.870	20.110	1.643	0.132
60.999	117.154	80.006	19.993	103.872	20.111	1.601	0.181
61.499	117.203	80.001	19.994	103.877	20.114	1.387	0.187
61.999	117.300	80.004	19.995	103.882	20.112	1.477	0.153
62.499	117.419	80.008	19.992	103.887	20.113	1.459	0.180
62.999	117.503	80.004	19.993	103.895	20.111	1.547	0.209
63.499	117.581	80.007	19.993	103.901	20.112	1.476	0.183
63.999	117.637	80.001	19.993	103.904	20.112	1.504	0.148
64.499	117.725	80.005	19.993	103.905	20.111	1.603	0.139
64.999	117.792	80.008	19.993	103.901	20.109	1.699	0.149
65.499	117.882	80.004	19.993	103.898	20.110	1.632	0.156
65.999	117.992	79.998	19.993	103.898	20.107	1.851	0.179
66.499	118.096	80.005	19.994	103.899	20.110	1.637	0.207
66.999	118.196	80.006	19.993	103.899	20.107	1.827	0.208
67.499	118.248	80.004	19.993	103.904	20.105	2.007	0.177
67.999	118.358	80.003	19.993	103.906	20.106	1.946	0.157
68.499	118.484	80.004	19.992	103.905	20.106	1.895	0.199
68.999	118.549	80.012	19.992	103.905	20.105	1.964	0.214
69.499	118.668	80.009	19.993	103.907	20.108	1.793	0.188
69.999	118.743	80.004	19.993	103.909	20.106	1.931	0.189
70.499	118.853	79.999	19.993	103.908	20.106	1.917	0.189
70.999	118.951	80.014	19.991	103.910	20.107	1.822	0.196
71.499	119.074	80.006	19.993	103.911	20.106	1.884	0.214
71.999	119.135	80.011	19.992	103.910	20.106	1.880	0.203
72.499	119.273	80.005	19.993	103.910	20.109	1.735	0.192
72.999	119.385	80.000	19.994	103.909	20.104	2.051	0.225
73.499	119.452	80.001	19.995	103.908	20.104	2.036	0.215
73.999	119.586	80.006	19.993	103.909	20.108	1.760	0.190
74.499	119.692	80.004	19.993	103.915	20.106	1.897	0.220
74.999	119.766	80.007	19.993	103.917	20.108	1.779	0.210
75.499	119.874	80.004	19.994	103.918	20.107	1.876	0.181
75.999	120.005	80.010	19.993	103.923	20.107	1.835	0.211
76.499	120.122	80.007	19.993	103.926	20.106	1.912	0.244
76.999	120.241	80.007	19.993	103.928	20.105	1.953	0.242
77.499	120.321	80.007	19.993	103.932	20.103	2.111	0.218
77.999	120.465	80.013	19.992	103.937	20.104	2.055	0.212
78.499	120.586	80.004	19.993	103.940	20.100	2.305	0.244
78.999	120.683	80.005	19.992	103.941	20.101	2.258	0.242
79.499	120.814	80.008	19.993	103.941	20.102	2.205	0.223
79.999	120.920	80.005	19.993	103.941	20.101	2.239	0.232
80.499	121.053	80.006	19.993	103.943	20.103	2.106	0.238
80.999	121.161	80.004	19.994	103.943	20.102	2.211	0.240
81.499	121.257	80.007	19.992	103.943	20.099	2.416	0.223
81.999	121.378	80.008	19.993	103.942	20.101	2.262	0.210
82.499	121.512	80.008	19.992	103.944	20.100	2.314	0.236
82.999	121.626	80.007	19.992	103.944	20.101	2.251	0.252
83.499	121.772	80.007	19.992	103.946	20.100	2.303	0.254
83.999	121.901	80.007	19.993	103.946	20.098	2.425	0.268
84.499	121.996	80.008	19.993	103.948	20.099	2.399	0.249
84.999	122.162	80.007	19.992	103.951	20.100	2.330	0.242
85.499	122.305	80.007	19.993	103.954	20.097	2.491	0.285
85.999	122.436	80.009	19.994	103.955	20.100	2.346	0.292
86.499	122.578	80.006	19.993	103.955	20.098	2.457	0.273
86.999	122.706	80.009	19.993	103.954	20.098	2.454	0.271
87.499	122.830	80.008	19.994	103.953	20.099	2.395	0.261
87.999	122.962	80.006	19.993	103.952	20.097	2.538	0.254
88.499	123.124	80.009	19.994	103.951	20.100	2.335	0.276
88.999	123.234	80.008	19.994	103.954	20.097	2.502	0.283
89.499	123.390	80.007	19.993	103.961	20.099	2.393	0.269
89.999	123.543	80.008	19.995	103.964	20.096	2.568	0.287
90.499	123.636	80.010	19.995	103.969	20.099	2.393	0.277
90.999	123.837	80.006	19.993	103.976	20.095	2.662	0.270
91.499	123.990	80.007	19.995	103.974	20.098	2.461	0.324
91.999	124.105	80.008	19.993	103.972	20.098	2.457	0.311
92.499	124.264	80.005	19.993	103.973	20.096	2.576	0.270
92.999	124.385	80.006	19.993	103.970	20.096	2.577	0.277
93.499	124.577	80.008	19.993	103.970	20.097	2.531	0.297
93.999	124.703	80.007	19.994	103.977	20.095	2.639	0.316
94.499	124.838	80.008	19.993	103.980	20.093	2.814	0.289
94.999	125.023	80.006	19.993	103.980	20.093	2.795	0.290
95.499	125.173	80.007	19.994	103.983	20.094	2.705	0.328
95.999	125.303	80.007	19.994	103.982	20.094	2.711	0.308
96.499	125.487	80.007	19.994	103.982	20.094	2.728	0.297
96.999	125.656	80.005	19.994	103.981	20.096	2.619	0.334
97.499	125.786	80.010	19.992	103.981	20.094	2.722	0.326
97.999	125.951	80.004	19.995	103.982	20.092	2.865	0.296
98.499	126.110	80.007	19.993	103.980	20.093	2.765	0.309
98.999	126.278	80.010	19.993	103.980	20.091	2.944	0.326
99.499	126.473	80.007	19.994	103.980	20.092	2.861	0.345
99.999	126.609	80.007	19.993	103.980	20.090	2.969	0.346
100.499	126.795	80.008	19.995	103.980	20.093	2.799	0.326
100.999	126.942	79.999	19.997	103.981	20.093	2.790	0.328
101.499	127.079	80.004	19.993	103.979	20.092	2.873	0.309
101.999	127.305	80.016	19.993	103.975	20.096	2.611	0.323
102.499	127.474	80.009	19.995	103.977	20.092	2.893	0.379
102.999	127.644	80.009	19.994	103.975	20.092	2.842	0.367
103.499	127.785	80.010	19.994	103.975	20.090	2.968	0.325
103.999	127.983	80.010	19.993	103.976	20.094	2.750	0.325
104.499	128.190	80.010	19.994	103.979	20.094	2.749	0.372
104.999	128.338	80.005	19.993	103.976	20.092	2.831	0.380
105.499	128.542	80.007	19.996	103.975	20.093	2.803	0.354
105.999	128.669	80.011	19.994	103.974	20.094	2.754	0.342
106.499	128.853	80.005	19.995	103.977	20.092	2.895	0.321
106.999	129.031	80.009	19.994	103.977	20.094	2.698	0.337
107.499	129.223	80.008	19.996	103.979	20.092	2.865	0.366
107.999	129.396	80.009	19.994	103.982	20.091	2.935	0.368
108.499	129.575	80.008	19.994	103.980	20.092	2.850	0.359
108.999	129.742	80.007	19.994	103.979	20.091	2.901	0.349
109.499	129.942	80.009	19.993	103.980	20.092	2.860	0.356
109.999	130.138	80.006	19.993	103.983	20.091	2.903	0.382
110.499	130.341	80.005	19.994	103.984	20.092	2.856	0.398
110.999	130.505	80.007	19.993	103.988	20.093	2.784	0.383
111.499	130.693	80.006	19.994	103.989	20.093	2.814	0.360
111.999	130.857	80.005	19.994	103.989	20.094	2.709	0.352
112.499	131.042	80.007	19.993	103.986	20.093	2.786	0.350
112.999	131.231	80.008	19.994	103.984	20.094	2.732	0.361
113.499	131.422	80.003	19.994	103.983	20.094	2.743	0.377
113.999	131.604	80.005	19.995	103.983	20.096	2.608	0.377
114.499	131.769	80.006	19.995	103.982	20.093	2.775	0.361
114.999	131.989	80.006	19.995	103.983	20.093	2.769	0.366
115.499	132.196	80.009	19.993	103.985	20.092	2.890	0.405
115.999	132.409	80.008	19.993	103.986	20.093	2.811	0.424
116.499	132.598	80.000	19.995	103.987	20.092	2.831	0.412
116.999	132.805	80.009	19.992	103.987	20.095	2.673	0.399
117.499	132.974	79.982	19.997	103.989	20.092	2.850	0.386
117.999	133.157	80.008	19.993	103.987	20.094	2.741	0.364
118.499	133.376	80.007	19.994	103.987	20.097	2.501	0.377
118.999	133.569	80.004	19.995	103.993	20.096	2.606	0.407
119.499	133.753	80.007	19.994	104.001	20.094	2.739	0.394
119.999	133.952	80.008	19.992	104.001	20.092	2.844	0.380
120.499	134.148	80.010	19.994	104.003	20.094	2.751	0.389
120.999	134.382	80.005	19.994	103.998	20.095	2.640	0.413
121.499	134.568	80.005	19.994	103.988	20.096	2.621	0.425
121.999	134.742	80.009	19.993	103.980	20.091	2.912	0.390
122.499	134.943	80.006	19.993	103.978	20.091	2.899	0.367
122.999	135.152	80.005	19.995	103.979	20.093	2.807	0.392
123.499	135.403	80.006	19.993	103.982	20.095	2.685	0.435
123.999	135.596	80.004	19.994	103.986	20.091	2.908	0.452
124.499	135.787	80.008	19.994	103.987	20.090	3.008	0.414
124.999	136.010	80.005	19.995	103.986	20.090	2.980	0.399
125.499	136.172	80.004	19.993	103.986	20.092	2.833	0.400
125.999	136.428	80.004	19.994	103.985	20.093	2.814	0.402
126.499	136.635	80.006	19.993	103.986	20.090	2.966	0.440
126.999	136.833	80.006	19.995	103.986	20.091	2.910	0.434
127.499	137.075	80.008	19.994	103.986	20.095	2.687	0.422
127.999	137.270	80.007	19.995	103.986	20.092	2.839	0.438
128.499	137.506	80.002	19.994	103.986	20.091	2.946	0.434
128.999	137.725	80.006	19.995	103.985	20.093	2.788	0.443
129.499	137.927	80.007	19.993	103.985	20.091	2.921	0.438
129.999	138.131	80.006	19.993	103.986	20.092	2.846	0.414
130.499	138.335	80.006	19.994	103.987	20.092	2.893	0.407
130.999	138.558	80.004	19.995	103.987	20.092	2.873	0.417
131.499	138.779	80.004	19.994	103.987	20.093	2.767	0.435
131.999	138.998	80.004	19.995	103.987	20.094	2.713	0.442
132.499	139.231	80.005	19.994	103.985	20.092	2.837	0.446
132.999	139.442	80.006	19.994	103.984	20.092	2.867	0.449
133.499	139.639	80.004	19.995	103.985	20.090	3.012	0.426
133.999	139.890	80.004	19.995	103.983	20.090	3.008	0.427
134.499	140.082	80.003	19.994	103.983	20.088	3.106	0.446
134.999	140.315	80.014	19.996	103.985	20.089	3.075	0.434
135.499	140.520	80.005	19.995	103.984	20.091	2.965	0.431
135.999	140.747	80.008	19.994	103.982	20.090	3.019	0.435
136.499	140.997	80.008	19.994	103.984	20.089	3.060	0.454
136.999	141.185	80.007	19.995	103.983	20.091	2.912	0.458
137.499	141.410	80.007	19.994	103.982	20.088	3.111	0.426
137.999	141.628	80.004	19.993	103.984	20.089	3.062	0.428
138.499	141.857	80.005	19.993	103.983	20.089	3.091	0.445
138.999	142.073	80.007	19.994	103.984	20.090	3.030	0.446
139.499	142.280	80.007	19.994	103.984	20.090	2.985	0.434
139.999	142.522	80.005	19.993	103.984	20.091	2.946	0.436
140.499	142.734	80.007	19.994	103.983	20.093	2.769	0.452
140.999	142.994	80.007	19.994	103.983	20.094	2.762	0.463
141.499	143.263	80.006	19.993	103.981	20.092	2.845	0.500
141.999	143.472	80.006	19.992	103.982	20.091	2.901	0.504
142.499	143.695	80.005	19.993	103.981	20.092	2.862	0.455
142.999	143.951	80.006	19.993	103.982	20.093	2.818	0.455
143.499	144.138	80.004	19.993	103.985	20.094	2.734	0.461
143.999	144.398	80.004	19.993	103.987	20.094	2.743	0.445
144.499	144.601	80.006	19.993	103.987	20.092	2.844	0.455
144.999	144.849	80.004	19.992	103.987	20.093	2.807	0.457
145.499	145.069	80.007	19.994	103.987	20.092	2.874	0.460
145.999	145.277	80.006	19.994	103.984	20.092	2.863	0.449
146.499	145.503	79.999	19.993	103.980	20.093	2.801	0.431
146.999	145.767	80.008	19.993	103.979	20.093	2.792	0.462
147.499	145.990	80.009	19.993	103.984	20.093	2.811	0.488
147.999	146.213	80.005	19.993	103.988	20.093	2.809	0.466
148.499	146.408	80.007	19.993	103.988	20.092	2.839	0.432
148.999	146.656	80.005	19.996	103.990	20.093	2.824	0.431
149.499	146.906	80.006	19.994	103.990	20.092	2.841	0.471
149.999	147.149	80.009	19.994	103.986	20.097	2.542	0.496
150.499	147.383	80.003	19.995	103.983	20.093	2.797	0.485
150.999	147.628	80.010	19.993	103.987	20.093	2.764	0.477
151.499	147.823	80.005	19.994	103.992	20.094	2.700	0.459
151.999	148.087	80.008	19.993	103.994	20.094	2.698	0.450
152.499	148.316	80.008	19.993	103.997	20.098	2.488	0.476
152.999	148.558	80.010	19.992	103.996	20.093	2.764	0.482
153.499	148.818	80.003	19.994	103.993	20.092	2.856	0.487
153.999	149.058	80.007	19.992	103.988	20.094	2.696	0.501
154.499	149.288	80.007	19.994	103.988	20.091	2.919	0.485
154.999	149.490	80.002	19.994	103.985	20.095	2.664	0.451
155.499	149.774	80.008	19.994	103.984	20.092	2.876	0.459
155.999	150.001	80.008	19.993	103.983	20.093	2.816	0.498
156.499	150.237	80.006	19.993	103.983	20.094	2.749	0.487
156.999	150.507	80.008	19.993	103.982	20.095	2.647	0.485
157.499	150.736	80.009	19.993	103.983	20.095	2.690	0.503
157.999	150.973	80.007	19.993	103.984	20.094	2.743	0.482
158.499	151.243	80.010	19.993	103.986	20.096	2.562	0.486
158.999	151.425	80.009	19.992	103.986	20.093	2.775	0.479
159.499	151.660	80.006	19.994	103.986	20.096	2.574	0.434
159.999	151.929	80.008	19.992	103.984	20.097	2.553	0.461
160.499	152.161	80.007	19.993	103.984	20.095	2.649	0.503
160.999	152.414	80.007	19.993	103.982	20.096	2.566	0.493
161.499	152.673	80.007	19.994	103.981	20.093	2.826	0.498
161.999	152.900	80.010	19.993	103.983	20.091	2.912	0.499
162.499	153.147	80.007	19.993	103.985	20.092	2.837	0.481
162.999	153.405	80.009	19.993	103.986	20.094	2.722	0.490
163.499	153.645	80.009	19.993	103.987	20.094	2.760	0.501
163.999	153.879	80.010	19.994	103.987	20.100	2.296	0.486
164.499	154.090	80.009	19.994	103.985	20.097	2.536	0.459
164.999	154.336	80.006	19.992	103.983	20.095	2.637	0.451
165.499	154.595	80.008	19.994	103.983	20.092	2.872	0.481
165.999	154.846	80.006	19.994	103.983	20.095	2.632	0.508
166.499	155.066	80.012	19.993	103.984	20.091	2.940	0.490
166.999	155.290	80.007	19.995	103.985	20.093	2.788	0.457
167.499	155.499	80.012	19.993	103.982	20.094	2.700	0.439
167.999	155.759	80.003	19.996	103.982	20.092	2.884	0.451
168.499	155.987	80.006	19.994	103.977	20.097	2.546	0.478
168.999	156.315	80.010	19.992	103.977	20.096	2.619	0.522
169.499	156.549	80.004	19.994	103.978	20.092	2.852	0.559
169.999	156.759	80.004	19.994	103.980	20.092	2.839	0.503
170.499	157.011	80.010	19.993	103.979	20.096	2.621	0.453
170.999	157.265	80.008	19.994	103.983	20.094	2.718	0.484
171.499	157.525	80.009	19.993	103.984	20.095	2.657	0.510
171.999	157.774	80.008	19.994	103.983	20.095	2.638	0.511
172.499	158.023	80.009	19.993	103.983	20.096	2.585	0.503
