Sample ID:	C:\MCC\MCC Cal\Test\PETG_MCC_30K_min_210927_R1.txt
Sample Weight (mg):	4.56
Heating Rate (C/s):	0.5
Combustor Temp (C):	900
N2 Flow Rate (cc/min):	80
O2 Flow Rate (cc/min):	20
Calibration File:	C:\MCC\MCC Cal\Coeff1 JN10440_30_210304.txt.txt
T Correction Coefficients:	0	1.024463	0
Time Shift (s):	14
*
Time (s)	Temperature (C)	N2 flow rate (cc/min)	O2 flow rate (cc/min)	Flow Rate (cc/min)	Oxygen (%)	HRR (W/g)	Heating rate (C/s)
0.000	108.561	79.996	19.994	100.064	20.128	0.159	0.007
0.500	108.587	79.999	19.996	100.064	20.130	0.056	-0.009
1.000	108.543	79.997	19.997	100.066	20.129	0.092	-0.011
1.500	108.555	79.997	19.996	100.066	20.130	0.050	-0.025
2.000	108.601	79.998	19.996	100.066	20.133	-0.189	0.013
2.500	108.564	79.997	19.996	100.066	20.132	-0.133	0.033
3.000	108.570	79.998	19.996	100.066	20.130	0.049	-0.011
3.500	108.596	79.998	19.995	100.065	20.129	0.114	0.000
4.000	108.554	79.997	19.995	100.065	20.129	0.080	0.008
4.500	108.581	79.998	19.994	100.065	20.131	-0.043	-0.015
5.000	108.610	79.996	19.996	100.065	20.130	0.015	0.021
5.500	108.582	79.999	19.996	100.066	20.131	-0.034	0.029
6.000	108.551	79.998	19.995	100.067	20.128	0.178	-0.029
6.500	108.553	79.998	19.996	100.065	20.130	0.049	-0.044
7.000	108.575	79.998	19.996	100.065	20.130	0.036	-0.003
7.500	108.548	79.999	19.996	100.064	20.130	0.021	0.010
8.000	108.588	79.999	19.996	100.064	20.131	-0.015	0.004
8.500	108.517	79.999	19.996	100.065	20.131	-0.004	-0.009
9.000	108.563	79.999	19.996	100.066	20.131	-0.002	-0.028
9.500	108.528	79.998	19.994	100.068	20.130	0.022	-0.007
10.000	108.543	79.997	19.995	100.068	20.131	-0.015	-0.005
10.500	108.535	79.999	19.995	100.069	20.130	0.050	-0.007
11.000	108.514	79.998	19.996	100.068	20.128	0.189	-0.011
11.500	108.543	79.998	19.995	100.070	20.130	0.015	-0.010
12.000	108.545	79.998	19.995	100.074	20.128	0.176	0.019
12.500	108.525	79.998	19.995	100.078	20.130	0.017	0.006
13.000	108.495	79.997	19.995	100.081	20.128	0.157	-0.034
13.501	108.530	79.998	19.995	100.088	20.127	0.243	-0.022
14.001	108.554	79.998	19.994	100.095	20.128	0.189	0.031
14.500	108.547	79.998	19.995	100.097	20.127	0.256	0.037
15.001	108.523	79.999	19.994	100.099	20.127	0.268	-0.007
15.501	108.544	79.998	19.995	100.107	20.125	0.384	-0.016
16.000	108.553	79.997	19.995	100.116	20.124	0.462	0.014
16.500	108.557	79.998	19.995	100.124	20.124	0.427	0.021
17.000	108.593	79.999	19.994	100.127	20.126	0.313	0.026
17.500	108.583	79.998	19.995	100.132	20.123	0.530	0.033
18.000	108.601	79.998	19.994	100.137	20.121	0.653	0.017
18.500	108.600	79.998	19.995	100.138	20.122	0.580	0.013
19.000	108.632	79.999	19.995	100.138	20.121	0.625	0.024
19.500	108.671	79.997	19.995	100.142	20.121	0.681	0.051
20.000	108.673	79.999	19.994	100.145	20.119	0.807	0.056
20.500	108.627	79.998	19.995	100.145	20.118	0.833	-0.001
21.000	108.707	79.999	19.995	100.148	20.118	0.865	-0.005
21.500	108.729	79.999	19.995	100.154	20.114	1.136	0.068
22.000	108.788	79.999	19.994	100.162	20.113	1.179	0.091
22.500	108.752	79.999	19.994	100.170	20.113	1.172	0.052
23.000	108.813	79.998	19.995	100.177	20.112	1.290	0.024
23.500	108.867	79.999	19.994	100.184	20.112	1.288	0.070
24.000	108.876	79.998	19.993	100.191	20.114	1.146	0.089
24.500	108.925	79.998	19.994	100.195	20.114	1.164	0.060
25.000	108.961	79.999	19.995	100.197	20.111	1.333	0.072
25.500	109.000	79.998	19.995	100.205	20.113	1.213	0.080
26.000	109.033	79.998	19.995	100.210	20.108	1.580	0.073
26.500	109.073	79.998	19.995	100.211	20.108	1.573	0.072
27.000	109.092	79.998	19.995	100.216	20.109	1.464	0.066
27.500	109.111	79.999	19.995	100.221	20.108	1.578	0.049
28.000	109.223	79.997	19.995	100.221	20.106	1.708	0.085
28.500	109.233	79.998	19.995	100.221	20.107	1.627	0.127
29.000	109.308	79.999	19.995	100.222	20.103	1.873	0.103
29.500	109.318	79.999	19.995	100.223	20.104	1.796	0.084
30.000	109.425	79.998	19.995	100.230	20.100	2.088	0.101
30.500	109.442	79.997	19.996	100.239	20.101	2.017	0.121
31.000	109.514	80.000	19.995	100.247	20.101	2.049	0.106
31.500	109.560	79.999	19.995	100.254	20.099	2.137	0.104
32.000	109.622	79.999	19.995	100.261	20.103	1.920	0.113
32.500	109.671	80.000	19.995	100.261	20.102	1.983	0.110
33.001	109.745	79.998	19.995	100.259	20.100	2.129	0.117
33.501	109.817	79.999	19.996	100.257	20.097	2.289	0.134
34.000	109.872	79.999	19.996	100.256	20.098	2.216	0.136
34.500	109.951	80.000	19.996	100.256	20.095	2.412	0.131
35.000	110.019	80.001	19.996	100.256	20.098	2.212	0.141
35.500	110.081	79.999	19.995	100.259	20.097	2.289	0.138
36.000	110.143	79.999	19.996	100.262	20.097	2.326	0.127
36.500	110.228	80.000	19.996	100.264	20.096	2.390	0.135
37.000	110.286	80.000	19.995	100.264	20.095	2.433	0.145
37.500	110.351	80.000	19.995	100.269	20.093	2.564	0.133
38.001	110.470	79.999	19.996	100.272	20.091	2.684	0.153
38.501	110.543	80.000	19.995	100.272	20.093	2.570	0.188
39.000	110.636	80.000	19.994	100.274	20.093	2.553	0.179
39.500	110.734	79.999	19.996	100.279	20.093	2.553	0.179
40.000	110.811	80.001	19.995	100.281	20.091	2.684	0.183
40.500	110.893	80.001	19.997	100.284	20.092	2.673	0.167
41.000	110.967	80.001	19.996	100.290	20.091	2.709	0.158
41.500	111.096	80.000	19.996	100.296	20.093	2.604	0.179
42.000	111.178	80.000	19.995	100.298	20.090	2.815	0.207
42.500	111.253	80.000	19.995	100.298	20.090	2.787	0.184
43.000	111.348	79.999	19.996	100.298	20.090	2.771	0.163
43.500	111.493	79.999	19.996	100.297	20.087	2.960	0.205
44.000	111.578	80.000	19.996	100.297	20.086	3.057	0.236
44.501	111.717	79.999	19.995	100.297	20.089	2.861	0.227
45.001	111.807	79.999	19.995	100.300	20.089	2.830	0.226
45.500	111.924	79.999	19.996	100.301	20.088	2.918	0.218
46.000	112.066	79.999	19.995	100.303	20.084	3.175	0.233
46.500	112.175	80.000	19.996	100.303	20.086	3.051	0.255
47.000	112.254	80.000	19.996	100.304	20.085	3.117	0.220
47.500	112.382	80.000	19.996	100.304	20.087	3.014	0.197
48.000	112.513	79.999	19.996	100.304	20.085	3.108	0.233
48.500	112.676	79.998	19.995	100.303	20.086	3.074	0.277
49.000	112.775	80.000	19.995	100.304	20.087	2.954	0.279
49.500	112.899	79.998	19.996	100.306	20.085	3.104	0.243
50.000	113.018	79.999	19.995	100.306	20.085	3.104	0.233
50.500	113.165	79.998	19.996	100.307	20.085	3.124	0.254
51.000	113.327	79.998	19.995	100.311	20.086	3.038	0.288
51.500	113.454	79.999	19.995	100.313	20.083	3.257	0.299
52.000	113.559	79.998	19.995	100.315	20.084	3.210	0.260
52.500	113.715	79.999	19.995	100.315	20.089	2.858	0.246
53.000	113.845	80.000	19.995	100.315	20.086	3.068	0.273
53.500	114.011	79.999	19.995	100.316	20.086	3.027	0.291
54.000	114.155	80.000	19.995	100.319	20.086	3.023	0.304
54.500	114.327	79.999	19.996	100.319	20.088	2.922	0.313
55.001	114.504	79.999	19.996	100.319	20.085	3.111	0.332
55.501	114.617	79.999	19.995	100.320	20.086	3.083	0.319
56.000	114.763	79.999	19.995	100.317	20.086	3.085	0.274
56.500	114.890	80.000	19.996	100.311	20.085	3.156	0.266
57.000	115.070	80.000	19.995	100.308	20.085	3.119	0.291
57.500	115.249	79.999	19.995	100.309	20.086	3.064	0.333
58.000	115.379	80.000	19.995	100.308	20.087	3.021	0.333
58.500	115.526	79.999	19.995	100.309	20.087	3.016	0.293
59.000	115.667	80.000	19.995	100.314	20.085	3.094	0.283
59.500	115.859	79.999	19.996	100.319	20.088	2.899	0.311
60.000	116.013	79.999	19.996	100.321	20.082	3.300	0.339
60.500	116.202	79.999	19.995	100.321	20.084	3.173	0.344
61.000	116.343	79.999	19.995	100.319	20.086	3.047	0.337
61.500	116.516	79.999	19.994	100.310	20.083	3.231	0.322
62.000	116.679	80.000	19.995	100.303	20.085	3.107	0.325
62.500	116.866	80.000	19.995	100.299	20.085	3.149	0.343
63.000	117.023	80.000	19.996	100.298	20.085	3.113	0.347
63.500	117.200	80.000	19.995	100.300	20.085	3.097	0.339
64.000	117.368	80.000	19.995	100.304	20.082	3.342	0.340
64.500	117.552	80.000	19.995	100.306	20.082	3.353	0.349
65.000	117.713	79.999	19.995	100.307	20.083	3.263	0.348
65.500	117.854	80.000	19.996	100.307	20.086	3.085	0.323
66.000	118.037	80.000	19.996	100.306	20.086	3.038	0.313
66.500	118.243	80.000	19.996	100.305	20.086	3.044	0.356
67.000	118.408	79.999	19.996	100.305	20.086	3.050	0.380
67.500	118.595	79.999	19.996	100.307	20.086	3.084	0.362
68.000	118.750	80.000	19.996	100.309	20.083	3.267	0.347
68.500	118.920	80.000	19.997	100.309	20.085	3.112	0.333
69.000	119.128	79.999	19.995	100.308	20.084	3.174	0.352
69.500	119.292	79.999	19.996	100.308	20.086	3.067	0.375
70.000	119.501	79.998	19.996	100.305	20.088	2.938	0.372
70.500	119.652	79.997	19.996	100.303	20.087	3.020	0.366
71.000	119.845	79.999	19.997	100.303	20.087	3.016	0.352
71.500	120.024	80.000	19.997	100.303	20.084	3.191	0.358
72.000	120.240	79.999	19.996	100.304	20.080	3.453	0.384
72.500	120.408	80.000	19.997	100.308	20.084	3.187	0.390
73.000	120.560	79.997	19.995	100.310	20.088	2.947	0.352
73.500	120.788	79.998	19.996	100.314	20.082	3.364	0.349
74.000	120.969	79.999	19.996	100.315	20.085	3.113	0.394
74.500	121.161	79.998	19.996	100.318	20.083	3.265	0.391
75.000	121.392	79.998	19.995	100.317	20.081	3.379	0.398
75.500	121.581	79.999	19.995	100.314	20.083	3.235	0.422
76.000	121.761	79.999	19.996	100.313	20.083	3.231	0.395
76.500	121.956	79.999	19.996	100.317	20.085	3.104	0.372
77.000	122.169	79.998	19.997	100.318	20.086	3.042	0.392
77.500	122.319	79.999	19.995	100.320	20.082	3.334	0.386
78.000	122.561	79.998	19.995	100.326	20.087	2.975	0.378
78.501	122.731	79.999	19.995	100.328	20.086	3.042	0.402
79.001	122.963	79.999	19.995	100.331	20.083	3.248	0.407
79.500	123.176	79.998	19.995	100.330	20.086	3.025	0.423
80.000	123.370	79.998	19.996	100.327	20.086	3.044	0.426
80.500	123.564	80.000	19.994	100.328	20.085	3.119	0.398
81.000	123.780	79.999	19.995	100.328	20.087	2.999	0.399
81.500	123.998	79.997	19.995	100.330	20.084	3.190	0.421
82.001	124.168	79.998	19.994	100.331	20.085	3.106	0.411
82.501	124.426	79.999	19.995	100.333	20.080	3.477	0.409
83.000	124.640	79.999	19.994	100.330	20.081	3.372	0.450
83.500	124.799	79.999	19.995	100.326	20.083	3.295	0.422
84.000	125.033	79.999	19.995	100.324	20.085	3.145	0.383
84.500	125.267	79.997	19.995	100.321	20.082	3.351	0.431
85.000	125.443	79.999	19.996	100.322	20.082	3.308	0.439
85.500	125.674	79.999	19.995	100.320	20.083	3.295	0.408
86.000	125.896	79.998	19.994	100.319	20.081	3.406	0.430
86.500	126.100	80.000	19.994	100.319	20.080	3.501	0.439
87.000	126.336	79.999	19.996	100.318	20.082	3.310	0.432
87.500	126.540	79.999	19.995	100.315	20.081	3.379	0.440
88.000	126.752	79.999	19.995	100.316	20.083	3.278	0.428
88.500	126.949	79.999	19.995	100.316	20.081	3.375	0.413
89.000	127.189	79.999	19.995	100.316	20.082	3.323	0.423
89.500	127.402	79.999	19.995	100.318	20.081	3.420	0.445
90.000	127.571	79.999	19.995	100.317	20.083	3.280	0.417
90.500	127.841	79.999	19.995	100.320	20.083	3.291	0.410
91.000	128.076	79.998	19.995	100.322	20.080	3.486	0.472
91.500	128.296	79.999	19.995	100.322	20.081	3.402	0.480
92.000	128.493	79.999	19.995	100.323	20.080	3.469	0.436
92.500	128.715	79.998	19.995	100.326	20.081	3.385	0.418
93.000	128.959	79.999	19.995	100.321	20.081	3.434	0.443
93.500	129.178	79.998	19.995	100.320	20.080	3.437	0.465
94.000	129.422	79.999	19.996	100.321	20.081	3.374	0.463
94.500	129.675	79.998	19.994	100.319	20.080	3.477	0.480
95.000	129.868	79.999	19.996	100.316	20.082	3.349	0.471
95.500	130.080	79.998	19.994	100.315	20.081	3.385	0.425
96.000	130.314	79.997	19.994	100.317	20.082	3.336	0.425
96.500	130.528	79.999	19.995	100.316	20.085	3.122	0.447
97.000	130.769	79.999	19.994	100.317	20.083	3.295	0.452
97.500	130.957	79.998	19.995	100.316	20.083	3.287	0.442
98.000	131.199	79.999	19.995	100.316	20.081	3.420	0.429
98.500	131.410	79.998	19.995	100.311	20.083	3.283	0.442
99.000	131.653	79.998	19.995	100.308	20.084	3.216	0.454
99.500	131.854	79.998	19.995	100.309	20.084	3.203	0.449
100.000	132.094	79.998	19.995	100.313	20.086	3.055	0.442
100.500	132.343	79.999	19.995	100.313	20.079	3.529	0.465
101.000	132.595	79.997	19.995	100.314	20.080	3.435	0.495
101.500	132.816	79.998	19.996	100.313	20.084	3.160	0.487
102.000	133.039	79.998	19.996	100.311	20.082	3.299	0.459
102.500	133.276	79.998	19.996	100.311	20.081	3.368	0.452
103.000	133.534	79.997	19.995	100.312	20.080	3.465	0.477
103.500	133.743	79.998	19.995	100.312	20.081	3.368	0.481
104.000	134.009	80.000	19.995	100.315	20.081	3.381	0.471
104.500	134.235	79.998	19.994	100.314	20.082	3.325	0.484
105.000	134.473	79.998	19.996	100.313	20.082	3.340	0.478
105.500	134.712	79.997	19.995	100.312	20.082	3.334	0.470
106.000	134.927	79.998	19.996	100.312	20.079	3.542	0.465
106.500	135.211	79.998	19.994	100.308	20.082	3.342	0.477
107.000	135.444	79.997	19.995	100.307	20.079	3.503	0.508
107.500	135.651	79.998	19.994	100.305	20.078	3.591	0.478
108.000	135.904	80.000	19.995	100.305	20.078	3.613	0.450
108.500	136.152	79.998	19.994	100.303	20.080	3.444	0.481
109.000	136.384	79.998	19.995	100.303	20.080	3.501	0.491
109.500	136.610	79.997	19.995	100.306	20.078	3.637	0.469
110.000	136.900	79.998	19.995	100.310	20.078	3.630	0.487
110.500	137.144	79.999	19.995	100.312	20.081	3.403	0.525
111.000	137.376	79.999	19.994	100.313	20.080	3.484	0.505
111.501	137.576	79.998	19.995	100.314	20.077	3.660	0.454
112.001	137.857	79.999	19.994	100.312	20.081	3.392	0.457
112.500	138.095	79.999	19.996	100.308	20.080	3.476	0.501
113.000	138.342	79.999	19.996	100.309	20.079	3.559	0.502
113.501	138.601	80.000	19.995	100.310	20.078	3.593	0.495
114.001	138.808	80.000	19.995	100.309	20.080	3.473	0.486
114.500	139.038	79.998	19.994	100.311	20.079	3.559	0.452
115.000	139.321	79.999	19.995	100.311	20.082	3.308	0.475
115.500	139.576	79.999	19.995	100.309	20.080	3.478	0.525
116.000	139.829	79.999	19.995	100.308	20.080	3.454	0.523
116.500	140.058	79.999	19.995	100.309	20.081	3.373	0.495
117.000	140.313	79.999	19.993	100.309	20.082	3.343	0.483
117.500	140.577	80.000	19.996	100.309	20.084	3.162	0.501
118.000	140.802	79.999	19.996	100.309	20.082	3.351	0.504
118.500	141.031	80.000	19.996	100.307	20.079	3.508	0.471
119.000	141.310	80.000	19.995	100.306	20.082	3.336	0.481
119.500	141.595	79.998	19.994	100.305	20.079	3.529	0.536
120.000	141.796	80.000	19.994	100.304	20.080	3.439	0.525
120.500	142.010	79.998	19.995	100.303	20.081	3.422	0.450
121.000	142.257	79.999	19.995	100.303	20.082	3.343	0.438
121.500	142.538	79.999	19.994	100.303	20.083	3.276	0.494
122.000	142.810	80.000	19.995	100.303	20.081	3.416	0.540
122.500	143.046	79.999	19.994	100.303	20.081	3.392	0.531
123.000	143.288	79.998	19.994	100.305	20.080	3.459	0.494
123.500	143.519	79.999	19.996	100.307	20.085	3.158	0.476
124.000	143.765	80.000	19.995	100.309	20.083	3.293	0.475
124.500	144.070	79.999	19.996	100.309	20.084	3.222	0.514
125.000	144.314	79.998	19.995	100.310	20.084	3.192	0.550
125.500	144.548	79.999	19.994	100.314	20.083	3.231	0.513
126.000	144.813	79.999	19.994	100.313	20.086	3.066	0.488
126.500	145.016	79.999	19.995	100.311	20.086	3.030	0.483
127.000	145.299	79.999	19.995	100.311	20.083	3.242	0.477
127.500	145.561	79.999	19.995	100.309	20.084	3.225	0.516
128.000	145.786	79.998	19.994	100.303	20.085	3.107	0.516
128.500	146.081	79.998	19.995	100.301	20.087	3.017	0.503
129.000	146.314	79.999	19.995	100.301	20.080	3.461	0.524
129.500	146.554	79.999	19.994	100.301	20.082	3.319	0.501
130.000	146.837	79.999	19.995	100.301	20.083	3.296	0.498
130.500	147.111	80.000	19.993	100.301	20.081	3.375	0.540
131.000	147.336	79.998	19.995	100.301	20.083	3.242	0.528
131.500	147.598	79.998	19.995	100.301	20.082	3.356	0.493
132.000	147.839	79.999	19.995	100.302	20.080	3.459	0.495
132.500	148.099	79.998	19.995	100.302	20.081	3.412	0.502
133.000	148.320	79.998	19.996	100.302	20.083	3.283	0.491
133.500	148.612	79.998	19.996	100.303	20.079	3.555	0.498
134.000	148.872	80.000	19.997	100.302	20.083	3.251	0.532
134.500	149.116	79.998	19.995	100.302	20.083	3.238	0.528
135.000	149.382	79.998	19.996	100.303	20.082	3.307	0.507
135.500	149.625	79.999	19.996	100.303	20.083	3.257	0.510
136.000	149.899	79.999	19.995	100.302	20.082	3.332	0.513
136.500	150.147	79.999	19.996	100.301	20.084	3.214	0.519
137.000	150.368	79.998	19.996	100.300	20.083	3.236	0.495
137.500	150.641	79.999	19.995	100.297	20.081	3.379	0.481
138.000	150.902	79.999	19.995	100.295	20.084	3.219	0.515
138.500	151.164	79.997	19.997	100.295	20.080	3.480	0.529
139.000	151.431	79.999	19.996	100.295	20.082	3.339	0.526
139.500	151.660	80.001	19.995	100.296	20.084	3.197	0.512
140.000	151.951	79.999	19.996	100.298	20.084	3.189	0.508
140.500	152.226	79.999	19.995	100.299	20.084	3.165	0.543
141.000	152.468	80.000	19.994	100.299	20.085	3.118	0.542
141.500	152.739	80.000	19.995	100.299	20.084	3.197	0.515
142.000	152.967	80.001	19.995	100.299	20.084	3.225	0.505
142.500	153.204	80.000	19.994	100.299	20.083	3.261	0.482
143.000	153.454	80.001	19.996	100.299	20.083	3.236	0.476
143.500	153.735	79.999	19.995	100.298	20.085	3.096	0.510
144.000	153.942	80.000	19.995	100.298	20.082	3.317	0.510
144.500	154.231	80.000	19.995	100.297	20.086	3.045	0.492
145.000	154.459	80.001	19.996	100.297	20.081	3.429	0.506
145.500	154.705	80.001	19.995	100.297	20.084	3.182	0.496
146.000	154.970	79.999	19.995	100.297	20.085	3.101	0.493
146.500	155.214	80.000	19.995	100.295	20.085	3.154	0.510
147.000	155.479	80.000	19.996	100.296	20.084	3.225	0.509
147.500	155.726	80.000	19.995	100.296	20.084	3.211	0.511
148.000	155.938	80.000	19.995	100.296	20.086	3.045	0.485
148.500	156.215	80.001	19.995	100.296	20.084	3.179	0.473
149.000	156.472	80.000	19.995	100.296	20.083	3.280	0.512
149.500	156.717	80.000	19.995	100.296	20.088	2.928	0.519
150.000	156.998	80.000	19.996	100.295	20.085	3.132	0.514
150.500	157.256	80.001	19.994	100.292	20.086	3.069	0.532
151.000	157.521	79.998	19.996	100.291	20.085	3.093	0.531
151.500	157.760	80.000	19.995	100.292	20.086	3.063	0.514
152.000	157.999	80.000	19.995	100.292	20.083	3.277	0.491
152.500	158.244	79.999	19.996	100.292	20.086	3.067	0.481
153.000	158.531	79.998	19.995	100.292	20.087	2.975	0.508
153.500	158.763	79.998	19.996	100.292	20.086	3.082	0.525
154.000	159.049	79.999	19.997	100.292	20.085	3.121	0.519
154.500	159.282	79.998	19.996	100.291	20.085	3.093	0.519
155.000	159.532	79.999	19.995	100.291	20.081	3.380	0.501
155.500	159.733	79.998	19.995	100.293	20.089	2.876	0.467
156.000	160.014	79.997	19.996	100.293	20.088	2.925	0.466
156.500	160.273	79.998	19.995	100.290	20.086	3.048	0.511
157.000	160.513	79.998	19.996	100.289	20.087	2.973	0.520
157.500	160.781	79.998	19.997	100.287	20.086	3.055	0.504
158.000	161.012	79.997	19.996	100.284	20.086	3.080	0.503
158.500	161.273	79.997	19.996	100.277	20.086	3.074	0.495
159.000	161.571	79.998	19.996	100.272	20.086	3.025	0.526
159.500	161.794	79.998	19.996	100.267	20.085	3.106	0.540
160.000	162.060	79.999	19.996	100.263	20.084	3.162	0.505
160.500	162.280	79.997	19.995	100.260	20.084	3.158	0.487
161.000	162.520	79.997	19.996	100.261	20.083	3.291	0.473
161.500	162.766	79.997	19.996	100.261	20.084	3.181	0.473
162.000	163.058	79.996	19.996	100.264	20.082	3.310	0.512
162.500	163.265	79.998	19.996	100.270	20.083	3.246	0.518
163.000	163.560	79.998	19.995	100.271	20.083	3.258	0.500
163.500	163.836	79.997	19.996	100.270	20.082	3.320	0.536
164.000	164.105	79.998	19.995	100.271	20.085	3.151	0.558
164.500	164.338	79.997	19.996	100.275	20.083	3.254	0.524
165.000	164.604	79.999	19.995	100.271	20.081	3.396	0.500
165.500	164.853	79.997	19.995	100.273	20.083	3.243	0.506
166.000	165.097	79.998	19.995	100.274	20.081	3.379	0.504
166.500	165.336	79.998	19.995	100.274	20.083	3.286	0.488
167.000	165.643	79.997	19.996	100.269	20.084	3.224	0.515
167.500	165.866	79.999	19.996	100.268	20.081	3.408	0.538
168.000	166.137	80.000	19.995	100.264	20.083	3.256	0.512
168.500	166.379	79.999	19.995	100.262	20.084	3.187	0.503
169.000	166.650	79.999	19.995	100.262	20.082	3.319	0.512
169.500	166.890	79.997	19.995	100.261	20.083	3.237	0.512
170.000	167.161	79.999	19.995	100.260	20.085	3.123	0.511
170.500	167.390	79.999	19.995	100.260	20.086	3.042	0.505
171.000	167.652	79.999	19.995	100.260	20.084	3.160	0.495
171.500	167.847	79.998	19.995	100.260	20.087	2.996	0.475
172.000	168.135	79.999	19.995	100.261	20.085	3.147	0.470
172.500	168.383	79.998	19.995	100.261	20.088	2.941	0.509
