Sample ID:	C:\MCC\MCC Cal\Test\PineLap_SidingB_MCC_30K_min_211122_R1.txt
Sample Weight (mg):	4.9
Heating Rate (C/s):	0.5
Combustor Temp (C):	900
N2 Flow Rate (cc/min):	80
O2 Flow Rate (cc/min):	20
Calibration File:	C:\MCC\MCC Cal\Coeff1 JN10440_30_210304.txt.txt
T Correction Coefficients:	0	1.024463	0
Time Shift (s):	14
*
Time (s)	Temperature (C)	N2 flow rate (cc/min)	O2 flow rate (cc/min)	Flow Rate (cc/min)	Oxygen (%)	HRR (W/g)	Heating rate (C/s)
0.000	109.070	80.005	19.992	103.130	20.008	0.202	-0.010
0.500	109.087	80.005	19.995	103.129	20.006	0.340	-0.014
1.000	109.115	80.007	19.995	103.130	20.008	0.179	0.022
1.500	109.068	80.004	19.995	103.131	20.010	0.047	0.013
2.000	109.090	80.006	19.995	103.132	20.010	0.023	-0.023
2.500	109.116	80.007	19.994	103.134	20.008	0.154	0.011
3.000	109.099	80.006	19.996	103.135	20.007	0.220	0.029
3.500	109.088	80.005	19.995	103.135	20.006	0.321	-0.009
4.000	109.108	80.006	19.992	103.135	20.011	-0.004	-0.009
4.500	109.092	80.006	19.995	103.135	20.004	0.466	0.007
5.000	109.071	80.006	19.995	103.135	20.005	0.403	-0.017
5.500	109.120	80.005	19.995	103.135	20.005	0.365	-0.005
6.000	109.132	80.007	19.994	103.133	20.002	0.604	0.044
6.500	109.094	80.006	19.995	103.133	20.004	0.464	0.017
7.000	109.063	80.006	19.994	103.134	20.006	0.332	-0.047
7.500	109.078	80.006	19.996	103.132	20.011	-0.005	-0.042
8.000	109.088	80.007	19.996	103.132	20.006	0.285	0.004
8.500	109.088	80.007	19.995	103.134	20.005	0.359	0.017
9.000	109.096	80.006	19.995	103.134	20.006	0.305	0.009
9.500	109.092	80.007	19.995	103.134	20.006	0.314	0.006
10.000	109.102	80.006	19.994	103.134	20.007	0.235	0.005
10.500	109.122	80.005	19.994	103.135	20.003	0.499	0.017
11.000	109.095	80.007	19.994	103.134	20.006	0.312	0.011
11.500	109.100	80.007	19.994	103.131	20.005	0.387	-0.014
12.000	109.077	80.007	19.994	103.131	20.003	0.488	-0.020
12.500	109.105	80.008	19.995	103.130	20.004	0.423	-0.006
13.000	109.052	80.009	19.995	103.131	20.000	0.681	-0.010
13.500	109.076	80.007	19.995	103.133	20.005	0.377	-0.027
14.000	109.110	80.007	19.995	103.141	20.001	0.653	0.015
14.500	109.062	80.006	19.994	103.148	19.999	0.746	0.022
15.000	109.091	80.007	19.994	103.135	20.001	0.619	-0.017
15.500	109.048	80.006	19.996	103.121	20.000	0.683	-0.016
16.000	109.065	80.007	19.996	103.116	19.999	0.771	-0.020
16.500	109.082	80.008	19.995	103.114	19.998	0.854	0.004
17.000	109.083	80.008	19.994	103.115	19.996	0.947	0.026
17.500	109.065	80.006	19.994	103.150	19.998	0.832	0.000
18.000	109.051	80.009	19.995	103.205	19.996	0.968	-0.025
18.500	109.054	80.006	19.996	103.237	19.995	1.054	-0.022
19.000	109.058	80.007	19.995	103.253	19.996	0.981	-0.002
19.500	109.066	80.007	19.996	103.262	19.997	0.904	0.010
20.000	109.084	80.008	19.994	103.257	19.995	1.065	0.019
20.500	109.168	80.007	19.995	103.230	19.994	1.108	0.064
21.000	109.123	80.008	19.994	103.219	19.990	1.359	0.070
21.500	109.146	80.006	19.994	103.215	19.993	1.144	0.008
22.000	109.164	80.006	19.995	103.215	19.988	1.512	0.010
22.500	109.186	80.006	19.994	103.216	19.989	1.431	0.041
23.000	109.221	80.005	19.994	103.217	19.992	1.261	0.048
23.500	109.207	80.007	19.994	103.217	19.991	1.309	0.039
24.000	109.279	80.006	19.995	103.216	19.989	1.410	0.040
24.500	109.276	80.007	19.994	103.211	19.994	1.091	0.063
25.000	109.291	80.007	19.995	103.210	19.992	1.265	0.040
25.500	109.348	80.007	19.994	103.210	19.993	1.168	0.042
26.000	109.332	80.007	19.994	103.210	19.992	1.243	0.057
26.500	109.367	80.007	19.994	103.211	19.991	1.326	0.030
27.000	109.417	80.007	19.994	103.216	19.987	1.546	0.052
27.500	109.381	80.008	19.995	103.216	19.990	1.374	0.049
28.000	109.452	80.008	19.993	103.216	19.988	1.471	0.025
28.500	109.457	80.009	19.994	103.216	19.992	1.252	0.056
29.000	109.515	80.007	19.994	103.217	19.989	1.425	0.069
29.500	109.514	80.006	19.994	103.218	19.989	1.436	0.060
30.000	109.542	80.006	19.994	103.219	19.989	1.400	0.043
30.500	109.591	80.008	19.993	103.218	19.987	1.545	0.052
31.000	109.575	80.006	19.994	103.219	19.984	1.750	0.055
31.500	109.655	80.007	19.993	103.218	19.986	1.646	0.048
32.000	109.651	80.007	19.993	103.217	19.987	1.558	0.070
32.499	109.687	80.007	19.993	103.216	19.986	1.637	0.054
32.999	109.743	80.009	19.993	103.218	19.982	1.881	0.062
33.499	109.781	80.009	19.994	103.223	19.987	1.560	0.093
33.999	109.837	80.006	19.994	103.229	19.986	1.638	0.094
34.499	109.867	80.007	19.993	103.237	19.984	1.771	0.090
34.999	109.900	80.009	19.993	103.245	19.987	1.588	0.074
35.500	109.948	80.007	19.994	103.251	19.983	1.857	0.072
36.000	109.970	80.009	19.993	103.254	19.985	1.685	0.075
36.500	110.005	80.007	19.993	103.256	19.984	1.731	0.063
37.000	110.046	80.007	19.993	103.257	19.982	1.891	0.066
37.500	110.086	80.006	19.993	103.257	19.978	2.182	0.079
38.000	110.146	80.007	19.994	103.258	19.978	2.139	0.091
38.499	110.202	80.008	19.994	103.264	19.976	2.258	0.108
38.999	110.240	80.008	19.993	103.272	19.978	2.157	0.105
39.499	110.316	80.008	19.994	103.279	19.979	2.096	0.104
39.999	110.352	80.008	19.994	103.288	19.983	1.847	0.113
40.499	110.414	80.008	19.994	103.299	19.973	2.498	0.105
40.999	110.463	80.008	19.994	103.305	19.973	2.455	0.105
41.500	110.550	80.008	19.995	103.311	19.976	2.272	0.123
42.000	110.544	80.009	19.993	103.315	19.974	2.388	0.108
42.499	110.674	80.008	19.994	103.320	19.975	2.338	0.102
42.999	110.722	80.009	19.993	103.323	19.975	2.359	0.151
43.499	110.781	80.006	19.995	103.327	19.973	2.504	0.142
43.999	110.852	80.007	19.994	103.333	19.970	2.701	0.118
44.499	110.906	80.008	19.993	103.345	19.970	2.704	0.128
44.999	110.989	80.007	19.995	103.353	19.972	2.536	0.131
45.499	111.071	80.003	19.993	103.361	19.966	2.936	0.151
45.999	111.134	80.006	19.994	103.366	19.969	2.766	0.155
46.499	111.201	80.006	19.994	103.369	19.968	2.782	0.138
46.999	111.278	80.007	19.995	103.372	19.968	2.801	0.137
47.499	111.389	80.007	19.994	103.373	19.966	2.942	0.166
47.999	111.495	80.006	19.994	103.373	19.965	3.030	0.203
48.500	111.562	80.005	19.994	103.372	19.967	2.877	0.195
49.000	111.650	80.006	19.996	103.363	19.962	3.206	0.164
49.499	111.729	80.005	19.996	103.332	19.962	3.227	0.161
49.999	111.838	80.007	19.995	103.308	19.962	3.195	0.178
50.499	111.937	80.006	19.995	103.294	19.960	3.332	0.198
50.999	112.054	80.004	19.995	103.286	19.960	3.348	0.213
51.500	112.129	80.005	19.994	103.294	19.961	3.285	0.204
52.000	112.244	80.007	19.995	103.357	19.965	3.016	0.190
52.499	112.311	80.007	19.995	103.399	19.963	3.117	0.186
52.999	112.472	80.005	19.994	103.417	19.957	3.528	0.205
53.499	112.552	80.003	19.994	103.424	19.961	3.264	0.235
53.999	112.696	80.006	19.996	103.424	19.960	3.331	0.232
54.499	112.760	80.005	19.996	103.387	19.963	3.155	0.215
54.999	112.879	80.005	19.995	103.366	19.959	3.439	0.195
55.499	113.028	80.005	19.995	103.362	19.956	3.622	0.226
55.999	113.151	80.004	19.995	103.360	19.959	3.406	0.270
56.499	113.259	80.006	19.995	103.359	19.959	3.408	0.252
57.000	113.377	80.005	19.995	103.363	19.955	3.663	0.228
57.501	113.523	80.006	19.996	103.364	19.956	3.622	0.245
58.000	113.602	80.005	19.995	103.364	19.954	3.760	0.245
58.499	113.768	80.005	19.993	103.366	19.957	3.526	0.235
58.999	113.869	80.005	19.996	103.366	19.955	3.701	0.256
59.499	114.009	80.005	19.994	103.367	19.957	3.527	0.254
59.999	114.141	80.005	19.994	103.373	19.955	3.694	0.257
60.499	114.266	80.006	19.995	103.375	19.953	3.780	0.264
60.999	114.405	80.006	19.995	103.376	19.951	3.924	0.260
61.499	114.549	80.006	19.995	103.384	19.954	3.736	0.274
61.999	114.677	80.006	19.995	103.391	19.953	3.788	0.277
62.499	114.798	80.007	19.995	103.393	19.955	3.677	0.260
62.999	114.965	80.007	19.994	103.400	19.958	3.464	0.268
63.499	115.091	80.006	19.994	103.407	19.956	3.573	0.290
63.999	115.238	80.006	19.995	103.407	19.955	3.641	0.283
64.499	115.384	80.007	19.996	103.408	19.956	3.578	0.284
64.999	115.514	80.005	19.994	103.409	19.957	3.519	0.285
65.499	115.655	80.005	19.994	103.409	19.953	3.822	0.273
65.999	115.838	80.004	19.995	103.411	19.955	3.640	0.298
66.500	116.001	80.006	19.995	103.411	19.956	3.582	0.335
67.000	116.153	80.005	19.996	103.411	19.954	3.707	0.330
67.499	116.320	80.006	19.995	103.411	19.952	3.859	0.317
67.999	116.449	80.006	19.996	103.407	19.957	3.516	0.308
68.499	116.591	80.006	19.995	103.397	19.954	3.757	0.283
68.999	116.758	80.006	19.995	103.388	19.951	3.942	0.290
69.499	116.861	80.006	19.996	103.380	19.959	3.408	0.289
69.999	117.031	80.005	19.996	103.372	19.956	3.579	0.271
70.499	117.233	80.006	19.995	103.369	19.961	3.275	0.323
70.999	117.373	80.005	19.995	103.370	19.957	3.525	0.357
71.499	117.574	80.006	19.995	103.371	19.957	3.521	0.342
71.999	117.744	80.005	19.995	103.375	19.958	3.460	0.356
72.499	117.910	80.005	19.996	103.380	19.958	3.499	0.353
72.999	118.039	80.006	19.996	103.386	19.956	3.625	0.315
73.499	118.229	80.006	19.995	103.393	19.954	3.763	0.307
73.999	118.390	80.004	19.995	103.399	19.955	3.686	0.335
74.499	118.592	80.006	19.996	103.399	19.956	3.623	0.357
74.999	118.740	80.005	19.995	103.397	19.955	3.656	0.356
75.499	118.930	80.005	19.996	103.392	19.954	3.710	0.344
75.999	119.144	80.007	19.995	103.389	19.954	3.713	0.371
76.500	119.310	80.006	19.995	103.390	19.957	3.517	0.392
77.000	119.485	80.005	19.997	103.398	19.954	3.754	0.360
77.500	119.655	80.006	19.995	103.407	19.955	3.674	0.343
78.000	119.826	80.005	19.995	103.413	19.955	3.699	0.344
78.499	120.013	80.005	19.995	103.417	19.956	3.604	0.349
78.999	120.217	80.005	19.995	103.417	19.955	3.678	0.374
79.499	120.363	80.004	19.995	103.413	19.958	3.505	0.370
79.999	120.583	80.006	19.995	103.408	19.953	3.784	0.358
80.499	120.746	80.006	19.996	103.407	19.956	3.611	0.374
81.000	120.931	80.004	19.995	103.407	19.954	3.737	0.366
81.501	121.152	80.004	19.995	103.404	19.955	3.701	0.377
82.000	121.356	80.004	19.996	103.400	19.954	3.753	0.415
82.499	121.509	80.003	19.995	103.399	19.956	3.617	0.391
82.999	121.714	80.005	19.996	103.399	19.953	3.793	0.358
83.499	121.942	80.006	19.995	103.398	19.955	3.701	0.396
84.000	122.164	80.007	19.996	103.397	19.954	3.742	0.442
84.500	122.324	80.008	19.996	103.398	19.951	3.949	0.416
84.999	122.530	80.005	19.996	103.398	19.952	3.874	0.374
85.499	122.768	80.008	19.996	103.398	19.950	3.983	0.405
85.999	122.953	80.007	19.995	103.398	19.947	4.172	0.433
86.499	123.166	80.005	19.995	103.402	19.950	3.976	0.411
86.999	123.362	80.009	19.994	103.402	19.948	4.145	0.404
87.499	123.560	80.006	19.995	103.399	19.952	3.883	0.401
88.000	123.797	80.005	19.995	103.397	19.952	3.893	0.414
88.500	123.976	80.006	19.994	103.398	19.951	3.961	0.426
88.999	124.179	80.005	19.995	103.399	19.947	4.180	0.399
89.499	124.382	80.004	19.994	103.402	19.948	4.114	0.394
89.999	124.598	80.006	19.995	103.406	19.952	3.842	0.413
90.499	124.798	80.006	19.995	103.409	19.953	3.787	0.418
90.999	125.002	80.006	19.994	103.409	19.951	3.914	0.410
91.499	125.237	80.006	19.995	103.409	19.953	3.791	0.422
92.000	125.430	80.006	19.995	103.411	19.953	3.771	0.433
92.501	125.644	80.007	19.994	103.412	19.949	4.044	0.417
93.000	125.889	80.007	19.994	103.412	19.953	3.801	0.433
93.499	126.095	80.007	19.994	103.412	19.951	3.952	0.455
93.999	126.316	80.007	19.995	103.412	19.951	3.945	0.439
94.499	126.534	80.005	19.994	103.411	19.951	3.909	0.433
94.999	126.753	80.007	19.994	103.412	19.952	3.884	0.438
95.499	126.892	80.008	19.994	103.412	19.949	4.048	0.397
96.000	127.182	80.006	19.994	103.412	19.949	4.055	0.393
96.500	127.375	80.008	19.996	103.412	19.952	3.881	0.456
96.999	127.574	80.007	19.993	103.411	19.946	4.288	0.438
97.499	127.813	80.007	19.995	103.410	19.948	4.152	0.415
97.999	128.047	80.008	19.994	103.410	19.945	4.316	0.455
98.499	128.239	80.006	19.994	103.410	19.950	4.010	0.449
98.999	128.488	80.008	19.994	103.407	19.947	4.217	0.433
99.499	128.711	80.007	19.993	103.402	19.949	4.097	0.457
99.999	128.896	80.006	19.994	103.399	19.949	4.035	0.440
100.499	129.140	80.007	19.995	103.398	19.948	4.154	0.418
100.999	129.379	80.006	19.994	103.397	19.950	3.999	0.456
101.499	129.591	80.006	19.994	103.398	19.950	4.006	0.467
101.999	129.820	80.007	19.994	103.398	19.948	4.123	0.446
102.500	130.021	80.007	19.993	103.400	19.945	4.362	0.436
103.001	130.253	80.005	19.994	103.401	19.949	4.066	0.432
103.501	130.515	80.006	19.994	103.395	19.948	4.132	0.463
104.001	130.717	80.006	19.994	103.393	19.948	4.157	0.478
104.501	130.963	80.007	19.994	103.398	19.949	4.064	0.456
105.000	131.205	80.005	19.994	103.399	19.949	4.062	0.469
105.499	131.442	80.005	19.994	103.400	19.948	4.161	0.483
105.999	131.670	80.005	19.993	103.405	19.947	4.177	0.471
106.500	131.888	80.005	19.994	103.407	19.947	4.186	0.455
107.000	132.150	80.007	19.994	103.406	19.949	4.049	0.463
107.499	132.347	80.006	19.995	103.407	19.949	4.067	0.469
107.999	132.609	80.007	19.995	103.407	19.949	4.062	0.459
108.499	132.833	80.006	19.994	103.409	19.948	4.145	0.473
109.000	133.076	80.007	19.994	103.416	19.951	3.954	0.477
109.500	133.290	80.006	19.994	103.416	19.949	4.044	0.462
109.999	133.485	80.007	19.994	103.416	19.948	4.152	0.433
110.499	133.761	80.006	19.994	103.416	19.949	4.080	0.440
111.000	134.003	80.006	19.994	103.415	19.949	4.080	0.495
111.501	134.214	80.005	19.994	103.411	19.950	3.970	0.485
112.000	134.481	80.006	19.993	103.411	19.946	4.253	0.466
112.499	134.697	80.008	19.995	103.410	19.946	4.234	0.481
112.999	134.971	80.007	19.994	103.411	19.953	3.793	0.487
113.499	135.180	80.008	19.995	103.411	19.948	4.144	0.486
113.999	135.426	80.005	19.994	103.412	19.951	3.921	0.469
114.499	135.708	80.008	19.995	103.413	19.948	4.157	0.492
114.999	135.928	80.008	19.994	103.413	19.951	3.950	0.515
115.499	136.195	80.006	19.994	103.412	19.953	3.826	0.494
116.000	136.396	80.008	19.993	103.412	19.950	3.984	0.478
116.500	136.664	80.007	19.993	103.410	19.950	4.024	0.469
116.999	136.909	80.007	19.994	103.408	19.953	3.781	0.491
117.499	137.146	80.007	19.995	103.407	19.947	4.220	0.498
118.000	137.377	80.008	19.994	103.404	19.949	4.038	0.475
118.500	137.649	80.008	19.994	103.403	19.955	3.689	0.485
118.999	137.900	80.007	19.995	103.403	19.947	4.171	0.513
119.500	138.130	80.008	19.994	103.405	19.950	3.986	0.502
120.001	138.348	80.009	19.994	103.405	19.951	3.925	0.465
120.500	138.609	80.009	19.995	103.406	19.951	3.916	0.464
120.999	138.888	80.009	19.994	103.407	19.952	3.844	0.509
121.499	139.119	80.008	19.994	103.404	19.950	4.011	0.525
121.999	139.382	80.010	19.993	103.399	19.952	3.869	0.502
122.500	139.621	80.009	19.993	103.391	19.949	4.086	0.498
123.000	139.879	80.008	19.994	103.387	19.949	4.039	0.499
123.499	140.131	80.008	19.993	103.385	19.949	4.079	0.504
123.999	140.398	80.009	19.992	103.382	19.951	3.907	0.514
124.499	140.612	80.008	19.994	103.382	19.951	3.902	0.500
124.999	140.861	80.008	19.994	103.387	19.949	4.055	0.472
125.499	141.106	80.009	19.994	103.388	19.950	4.008	0.478
125.999	141.344	80.009	19.993	103.383	19.950	3.970	0.489
126.499	141.569	80.007	19.993	103.387	19.948	4.130	0.474
126.999	141.877	80.008	19.994	103.390	19.948	4.110	0.498
127.499	142.120	80.009	19.993	103.391	19.950	3.971	0.542
127.999	142.390	80.008	19.994	103.390	19.953	3.833	0.532
128.500	142.594	80.006	19.993	103.392	19.954	3.754	0.493
129.000	142.858	80.008	19.995	103.391	19.958	3.446	0.471
129.500	143.128	80.008	19.995	103.386	19.953	3.793	0.501
130.000	143.341	80.007	19.993	103.386	19.955	3.687	0.508
130.500	143.628	80.008	19.994	103.388	19.955	3.674	0.491
131.000	143.862	80.007	19.995	103.388	19.955	3.694	0.510
131.500	144.146	80.006	19.994	103.387	19.952	3.841	0.519
132.000	144.393	80.006	19.993	103.386	19.957	3.538	0.524
132.500	144.678	80.007	19.996	103.382	19.951	3.910	0.532
133.000	144.922	80.005	19.994	103.378	19.960	3.339	0.530
133.500	145.186	80.007	19.994	103.377	19.955	3.682	0.518
134.000	145.419	80.007	19.994	103.378	19.954	3.737	0.503
134.500	145.675	80.007	19.994	103.381	19.950	3.991	0.493
135.000	145.949	80.007	19.993	103.385	19.955	3.644	0.509
135.500	146.205	80.005	19.994	103.391	19.952	3.874	0.530
136.000	146.419	80.006	19.994	103.398	19.951	3.908	0.500
136.500	146.720	80.007	19.994	103.396	19.955	3.678	0.493
137.000	146.944	80.007	19.995	103.396	19.954	3.752	0.520
137.500	147.210	80.006	19.995	103.394	19.954	3.727	0.508
138.000	147.425	80.007	19.995	103.390	19.953	3.779	0.486
138.500	147.715	80.006	19.995	103.383	19.954	3.728	0.493
139.000	147.979	80.006	19.995	103.379	19.957	3.534	0.529
139.500	148.221	80.006	19.995	103.376	19.954	3.719	0.530
140.000	148.473	80.007	19.995	103.372	19.955	3.673	0.501
140.500	148.731	80.007	19.995	103.369	19.954	3.742	0.502
141.000	148.991	80.006	19.995	103.368	19.950	4.003	0.514
141.500	149.245	80.005	19.995	103.368	19.954	3.735	0.516
142.000	149.524	80.005	19.995	103.368	19.953	3.820	0.523
142.500	149.772	80.007	19.996	103.368	19.955	3.660	0.530
143.000	149.984	80.006	19.996	103.370	19.955	3.674	0.493
143.500	150.281	80.006	19.995	103.373	19.953	3.771	0.485
144.000	150.488	80.005	19.995	103.373	19.955	3.642	0.506
144.500	150.796	80.006	19.995	103.373	19.954	3.737	0.509
145.000	151.033	80.006	19.995	103.372	19.957	3.570	0.530
145.500	151.297	80.006	19.995	103.371	19.955	3.653	0.523
146.000	151.552	80.007	19.996	103.369	19.953	3.816	0.510
146.500	151.828	80.006	19.994	103.369	19.956	3.608	0.525
147.000	152.039	80.008	19.997	103.368	19.954	3.757	0.509
147.500	152.279	80.006	19.995	103.369	19.955	3.666	0.469
148.000	152.555	80.006	19.997	103.370	19.959	3.416	0.483
148.500	152.838	80.005	19.995	103.370	19.956	3.635	0.538
149.000	153.035	80.008	19.996	103.372	19.956	3.626	0.520
149.500	153.327	80.006	19.995	103.373	19.956	3.628	0.485
150.000	153.564	80.005	19.995	103.372	19.954	3.761	0.509
150.500	153.816	80.006	19.996	103.372	19.956	3.583	0.509
151.000	154.077	80.007	19.995	103.370	19.954	3.703	0.501
151.500	154.305	80.007	19.996	103.362	19.953	3.780	0.501
152.000	154.533	80.006	19.994	103.360	19.958	3.493	0.472
152.500	154.813	80.006	19.995	103.359	19.953	3.780	0.482
153.000	155.042	80.006	19.995	103.359	19.955	3.689	0.508
153.500	155.317	80.006	19.994	103.360	19.952	3.867	0.506
154.000	155.541	80.006	19.995	103.367	19.950	3.994	0.501
154.500	155.799	80.005	19.995	103.370	19.956	3.574	0.490
155.000	156.062	80.005	19.994	103.371	19.955	3.687	0.502
155.500	156.298	80.005	19.995	103.372	19.962	3.222	0.510
156.000	156.548	80.006	19.995	103.372	19.955	3.702	0.492
156.500	156.773	80.007	19.995	103.372	19.956	3.610	0.481
157.000	157.050	80.007	19.993	103.372	19.958	3.452	0.489
157.500	157.301	80.005	19.993	103.371	19.959	3.409	0.515
158.000	157.612	80.006	19.994	103.371	19.960	3.357	0.545
158.500	157.846	80.005	19.994	103.371	19.955	3.680	0.554
159.000	158.112	80.006	19.995	103.369	19.961	3.279	0.523
159.500	158.349	80.007	19.994	103.369	19.958	3.468	0.501
160.000	158.573	80.006	19.995	103.369	19.953	3.784	0.482
160.500	158.828	80.006	19.994	103.368	19.953	3.780	0.470
161.000	159.113	80.005	19.994	103.365	19.957	3.524	0.509
161.500	159.318	80.005	19.993	103.365	19.957	3.527	0.515
162.000	159.599	80.006	19.995	103.366	19.957	3.568	0.488
162.500	159.877	80.005	19.994	103.366	19.954	3.723	0.522
163.000	160.124	80.003	19.994	103.368	19.955	3.647	0.542
163.500	160.333	80.007	19.995	103.371	19.957	3.522	0.491
164.000	160.625	80.007	19.995	103.372	19.956	3.579	0.478
164.500	160.893	80.006	19.995	103.373	19.961	3.272	0.530
165.000	161.103	80.005	19.995	103.373	19.954	3.730	0.519
165.500	161.393	80.004	19.994	103.376	19.954	3.709	0.489
166.000	161.639	80.005	19.996	103.383	19.954	3.728	0.519
166.500	161.892	80.004	19.995	103.384	19.956	3.626	0.517
167.000	162.139	80.005	19.994	103.383	19.957	3.561	0.499
167.500	162.414	80.005	19.995	103.383	19.952	3.858	0.511
168.000	162.671	80.005	19.995	103.381	19.956	3.595	0.527
168.500	162.928	80.004	19.995	103.374	19.953	3.812	0.523
169.000	163.165	80.004	19.995	103.373	19.960	3.353	0.505
169.500	163.464	80.004	19.996	103.373	19.956	3.627	0.515
170.000	163.731	80.005	19.995	103.373	19.957	3.539	0.550
170.500	163.974	80.004	19.995	103.372	19.953	3.796	0.538
171.000	164.210	80.005	19.996	103.372	19.956	3.588	0.495
171.500	164.518	80.005	19.995	103.371	19.957	3.516	0.512
172.000	164.768	80.006	19.996	103.367	19.951	3.920	0.551
172.500	165.003	80.005	19.995	103.363	19.954	3.722	0.521
