Sample ID:	C:\MCC\MCC Cal\Test\Corian_Countertop_30K_min_210930_R2.txt
Sample Weight (mg):	4.78
Heating Rate (C/s):	0.5
Combustor Temp (C):	900
N2 Flow Rate (cc/min):	80
O2 Flow Rate (cc/min):	20
Calibration File:	C:\MCC\MCC Cal\Coeff1 JN10440_30_210304.txt.txt
T Correction Coefficients:	0	1.024463	0
Time Shift (s):	14
*
Time (s)	Temperature (C)	N2 flow rate (cc/min)	O2 flow rate (cc/min)	Flow Rate (cc/min)	Oxygen (%)	HRR (W/g)	Heating rate (C/s)
-0.001	106.174	80.001	19.995	100.569	20.339	0.070	-0.013
0.499	106.140	80.002	19.996	100.569	20.341	-0.110	-0.016
1.000	106.110	80.002	19.996	100.570	20.343	-0.199	-0.045
1.500	106.141	80.003	19.995	100.570	20.341	-0.065	-0.031
2.000	106.112	80.001	19.994	100.574	20.339	0.034	0.002
2.499	106.142	80.001	19.996	100.574	20.341	-0.108	0.002
2.999	106.135	80.001	19.999	100.574	20.338	0.116	0.012
3.499	106.183	80.002	19.996	100.575	20.340	-0.020	0.031
3.999	106.172	80.003	19.998	100.575	20.343	-0.200	0.039
4.499	106.124	80.003	19.997	100.571	20.340	-0.042	-0.011
4.999	106.195	80.001	19.995	100.571	20.340	-0.018	-0.018
5.499	106.183	80.004	19.996	100.570	20.340	-0.007	0.041
5.999	106.177	80.002	19.996	100.569	20.340	0.005	0.021
6.499	106.192	80.001	19.996	100.568	20.344	-0.289	-0.005
6.999	106.141	80.002	19.994	100.568	20.338	0.121	-0.014
7.499	106.174	80.003	19.996	100.569	20.338	0.108	-0.027
7.999	106.153	80.002	19.996	100.569	20.339	0.052	-0.003
8.499	106.157	80.003	19.996	100.571	20.340	0.002	-0.002
8.999	106.162	80.003	19.996	100.572	20.338	0.089	-0.004
9.499	106.178	80.003	19.997	100.572	20.341	-0.098	0.015
9.999	106.160	80.004	19.996	100.571	20.338	0.117	0.009
10.499	106.175	80.003	19.996	100.572	20.340	-0.029	-0.003
10.999	106.181	80.003	19.995	100.571	20.338	0.105	0.009
11.499	106.185	80.003	19.996	100.570	20.339	0.058	0.016
11.999	106.190	80.002	19.996	100.571	20.339	0.045	0.010
12.499	106.169	80.002	19.996	100.571	20.339	0.038	-0.004
12.999	106.169	80.003	19.995	100.572	20.340	-0.020	-0.019
13.499	106.155	80.002	19.995	100.574	20.337	0.193	-0.017
13.999	106.176	80.003	19.996	100.574	20.337	0.179	-0.003
14.499	106.195	80.003	19.996	100.576	20.337	0.154	0.024
14.999	106.184	80.001	19.997	100.583	20.335	0.309	0.024
15.499	106.184	80.001	19.995	100.583	20.333	0.446	-0.001
15.999	106.194	80.001	19.995	100.589	20.335	0.316	-0.000
16.499	106.174	80.001	19.995	100.597	20.333	0.412	-0.000
16.999	106.176	80.000	19.996	100.602	20.335	0.305	-0.014
17.499	106.150	80.002	19.995	100.604	20.333	0.466	-0.021
17.999	106.199	80.000	19.996	100.611	20.331	0.559	-0.000
18.499	106.198	80.000	19.995	100.615	20.330	0.631	0.035
18.999	106.169	80.000	19.996	100.616	20.328	0.747	0.009
19.499	106.193	80.000	19.996	100.619	20.331	0.564	-0.017
19.999	106.178	80.000	19.995	100.623	20.332	0.483	0.002
20.500	106.219	80.000	19.996	100.625	20.332	0.472	0.018
21.000	106.207	79.999	19.996	100.626	20.329	0.667	0.028
21.499	106.214	79.999	19.995	100.631	20.331	0.551	0.012
21.999	106.242	80.000	19.996	100.636	20.332	0.521	0.015
22.499	106.218	80.000	19.996	100.643	20.328	0.785	0.020
22.999	106.256	80.001	19.995	100.652	20.328	0.765	0.009
23.499	106.245	80.000	19.996	100.658	20.328	0.752	0.020
23.999	106.271	80.001	19.996	100.666	20.326	0.920	0.021
24.499	106.302	80.001	19.996	100.674	20.324	1.003	0.036
24.999	106.295	79.999	19.996	100.677	20.325	0.982	0.040
25.499	106.334	80.001	19.995	100.678	20.325	0.951	0.028
25.999	106.347	80.001	19.995	100.678	20.327	0.828	0.042
26.499	106.381	80.000	19.995	100.677	20.324	1.025	0.049
26.999	106.379	80.000	19.995	100.675	20.323	1.083	0.039
27.499	106.372	79.999	19.997	100.675	20.322	1.135	0.012
27.999	106.415	79.999	19.995	100.678	20.324	1.005	0.014
28.499	106.432	79.999	19.996	100.684	20.323	1.079	0.047
29.000	106.464	80.002	19.996	100.686	20.323	1.063	0.054
29.500	106.511	80.000	19.997	100.689	20.322	1.186	0.064
30.000	106.543	79.999	19.996	100.690	20.321	1.255	0.080
30.500	106.530	79.999	19.997	100.690	20.321	1.211	0.049
31.000	106.580	80.001	19.996	100.688	20.322	1.184	0.028
31.499	106.601	80.000	19.996	100.688	20.320	1.260	0.054
32.000	106.648	80.001	19.996	100.688	20.318	1.441	0.070
32.500	106.661	80.000	19.996	100.688	20.321	1.240	0.064
32.999	106.691	80.000	19.996	100.690	20.319	1.383	0.051
33.500	106.762	80.001	19.995	100.695	20.315	1.589	0.072
34.000	106.785	79.999	19.996	100.698	20.317	1.484	0.098
34.499	106.827	80.001	19.997	100.698	20.317	1.495	0.080
34.999	106.893	80.001	19.996	100.696	20.317	1.481	0.086
35.499	106.937	80.000	19.997	100.694	20.318	1.428	0.109
35.999	106.940	80.001	19.996	100.690	20.314	1.691	0.078
36.499	107.027	80.002	19.998	100.687	20.317	1.490	0.069
36.999	107.048	80.001	19.997	100.687	20.321	1.246	0.100
37.499	107.060	80.001	19.995	100.687	20.317	1.472	0.071
37.999	107.115	80.001	19.997	100.687	20.318	1.398	0.050
38.499	107.168	80.001	19.997	100.690	20.317	1.508	0.087
38.999	107.218	80.001	19.998	100.694	20.317	1.476	0.105
39.499	107.281	80.001	19.997	100.694	20.316	1.562	0.108
39.999	107.304	80.000	19.997	100.695	20.319	1.385	0.099
40.499	107.349	80.000	19.997	100.694	20.315	1.639	0.077
40.999	107.411	80.000	19.998	100.691	20.312	1.821	0.087
41.499	107.478	80.001	19.996	100.688	20.314	1.668	0.118
42.000	107.565	80.000	19.996	100.690	20.315	1.640	0.142
42.500	107.604	80.001	19.996	100.695	20.313	1.738	0.140
42.999	107.642	80.000	19.997	100.702	20.313	1.733	0.101
43.499	107.710	80.000	19.997	100.707	20.312	1.827	0.091
43.999	107.761	80.001	19.997	100.709	20.314	1.657	0.113
44.499	107.817	80.001	19.996	100.710	20.313	1.755	0.114
44.999	107.879	80.001	19.997	100.706	20.314	1.686	0.113
45.499	107.935	80.001	19.997	100.706	20.316	1.577	0.118
45.999	107.991	80.000	19.997	100.708	20.316	1.586	0.115
46.499	108.049	79.998	19.996	100.712	20.315	1.626	0.113
46.999	108.129	80.000	19.997	100.716	20.310	1.923	0.126
47.500	108.178	80.001	19.997	100.721	20.312	1.845	0.134
48.000	108.226	80.001	19.996	100.722	20.313	1.737	0.112
48.500	108.293	80.000	19.996	100.722	20.313	1.728	0.106
49.001	108.369	80.000	19.996	100.722	20.312	1.849	0.129
49.500	108.428	79.999	19.997	100.724	20.313	1.776	0.139
49.999	108.483	80.000	19.996	100.726	20.309	2.003	0.125
50.499	108.575	80.002	19.997	100.733	20.309	2.026	0.131
50.999	108.695	80.001	19.996	100.736	20.308	2.070	0.180
51.499	108.748	80.000	19.996	100.738	20.309	1.994	0.193
51.999	108.848	80.002	19.996	100.739	20.305	2.247	0.163
52.499	108.915	80.001	19.996	100.743	20.307	2.135	0.160
52.999	108.979	80.000	19.996	100.744	20.305	2.261	0.148
53.499	109.043	80.002	19.996	100.749	20.308	2.075	0.130
54.000	109.139	80.000	19.995	100.755	20.305	2.279	0.145
54.500	109.201	80.001	19.996	100.762	20.305	2.281	0.159
54.999	109.310	80.002	19.997	100.764	20.304	2.326	0.164
55.499	109.353	80.001	19.996	100.764	20.305	2.270	0.162
55.999	109.447	80.002	19.996	100.764	20.305	2.301	0.144
56.499	109.557	80.001	19.996	100.764	20.308	2.097	0.171
56.999	109.629	80.002	19.997	100.764	20.307	2.173	0.193
57.499	109.709	80.001	19.995	100.765	20.304	2.365	0.167
57.999	109.812	80.001	19.995	100.765	20.306	2.233	0.168
58.499	109.942	80.001	19.995	100.765	20.305	2.258	0.208
58.999	110.038	80.002	19.996	100.767	20.305	2.299	0.229
59.499	110.121	80.002	19.995	100.766	20.303	2.421	0.202
59.999	110.228	80.002	19.995	100.766	20.303	2.408	0.184
60.499	110.319	80.001	19.996	100.766	20.304	2.343	0.194
61.000	110.425	80.002	19.996	100.767	20.304	2.352	0.197
61.500	110.503	80.001	19.995	100.767	20.305	2.256	0.191
61.999	110.625	80.001	19.996	100.771	20.303	2.441	0.193
62.499	110.692	80.002	19.996	100.771	20.303	2.396	0.195
62.999	110.814	80.002	19.996	100.771	20.302	2.470	0.189
63.499	110.910	80.002	19.996	100.769	20.304	2.316	0.203
63.999	111.015	80.003	19.996	100.768	20.305	2.253	0.209
64.499	111.130	80.002	19.996	100.765	20.304	2.329	0.211
64.999	111.236	80.002	19.996	100.765	20.303	2.391	0.220
65.499	111.332	80.003	19.996	100.767	20.303	2.398	0.211
65.999	111.432	80.002	19.997	100.770	20.300	2.633	0.199
66.499	111.541	80.004	19.996	100.772	20.298	2.742	0.203
66.999	111.693	80.002	19.996	100.776	20.300	2.615	0.235
67.499	111.778	80.005	19.996	100.782	20.300	2.601	0.249
67.999	111.915	80.002	19.996	100.782	20.300	2.613	0.230
68.499	112.014	80.002	19.996	100.785	20.299	2.653	0.229
68.999	112.121	80.003	19.996	100.785	20.300	2.611	0.221
69.499	112.251	80.003	19.994	100.781	20.298	2.713	0.221
69.999	112.365	80.003	19.996	100.776	20.300	2.626	0.241
70.499	112.493	80.002	19.994	100.778	20.300	2.577	0.243
70.999	112.619	80.001	19.995	100.776	20.299	2.668	0.248
71.499	112.757	80.003	19.995	100.780	20.298	2.769	0.259
71.999	112.855	80.001	19.995	100.786	20.295	2.937	0.251
72.500	112.973	80.002	19.996	100.793	20.301	2.530	0.226
73.000	113.100	80.002	19.995	100.795	20.299	2.669	0.230
73.499	113.216	80.003	19.997	100.798	20.300	2.628	0.243
73.999	113.361	80.002	19.995	100.800	20.295	2.932	0.252
74.499	113.473	80.003	19.995	100.802	20.294	2.988	0.259
74.999	113.638	80.001	19.996	100.803	20.297	2.817	0.267
75.499	113.741	80.003	19.995	100.804	20.296	2.893	0.272
75.999	113.912	80.001	19.996	100.805	20.298	2.755	0.271
76.499	113.993	80.001	19.993	100.806	20.295	2.962	0.263
76.999	114.181	80.000	19.996	100.806	20.294	3.016	0.261
77.500	114.305	80.002	19.997	100.806	20.294	2.980	0.291
78.000	114.487	80.003	19.997	100.806	20.294	2.984	0.309
78.499	114.616	80.002	19.996	100.807	20.295	2.960	0.308
79.000	114.753	80.001	19.995	100.807	20.294	2.987	0.289
79.500	114.873	80.003	19.995	100.807	20.294	3.020	0.261
79.999	115.009	80.002	19.995	100.807	20.299	2.685	0.256
80.499	115.126	80.001	19.996	100.806	20.296	2.875	0.255
80.999	115.278	80.002	19.994	100.805	20.295	2.940	0.261
81.499	115.410	80.002	19.995	100.806	20.296	2.873	0.276
81.999	115.589	80.001	19.995	100.805	20.294	3.013	0.297
82.499	115.731	80.001	19.996	100.806	20.300	2.616	0.316
82.999	115.876	80.002	19.996	100.806	20.296	2.904	0.305
83.499	116.015	80.003	19.995	100.807	20.294	3.016	0.286
83.999	116.190	80.002	19.996	100.810	20.296	2.889	0.299
84.499	116.295	80.001	19.996	100.816	20.298	2.741	0.297
84.999	116.511	80.001	19.995	100.820	20.298	2.746	0.300
85.499	116.621	80.001	19.995	100.827	20.297	2.828	0.323
85.999	116.796	80.003	19.995	100.834	20.295	2.917	0.305
86.499	116.949	80.004	19.995	100.838	20.298	2.743	0.307
86.999	117.102	80.003	19.994	100.841	20.294	3.005	0.317
87.499	117.269	80.001	19.994	100.844	20.294	3.032	0.313
87.999	117.458	80.003	19.994	100.844	20.296	2.886	0.338
88.499	117.607	80.002	19.995	100.844	20.292	3.107	0.348
88.999	117.778	80.003	19.995	100.845	20.290	3.237	0.329
89.499	117.953	80.003	19.995	100.845	20.291	3.186	0.333
89.999	118.127	80.003	19.995	100.843	20.287	3.443	0.347
90.499	118.280	80.004	19.995	100.841	20.290	3.260	0.338
90.999	118.452	80.004	19.995	100.840	20.291	3.189	0.326
91.499	118.618	80.004	19.995	100.840	20.292	3.111	0.331
91.999	118.781	80.004	19.994	100.840	20.287	3.432	0.333
92.499	118.951	80.003	19.994	100.843	20.288	3.370	0.331
92.999	119.168	80.003	19.995	100.846	20.288	3.417	0.360
93.499	119.345	80.003	19.995	100.846	20.287	3.434	0.391
93.999	119.503	80.003	19.994	100.846	20.288	3.414	0.365
94.500	119.671	80.004	19.996	100.846	20.287	3.467	0.330
95.001	119.869	80.005	19.994	100.846	20.291	3.215	0.346
95.500	120.032	80.001	19.995	100.845	20.285	3.583	0.363
95.999	120.245	80.003	19.995	100.845	20.288	3.393	0.369
96.499	120.437	80.003	19.994	100.845	20.285	3.566	0.391
97.000	120.579	80.004	19.995	100.844	20.285	3.582	0.370
97.500	120.798	80.002	19.995	100.844	20.289	3.316	0.347
97.999	120.952	80.003	19.995	100.844	20.291	3.200	0.367
98.499	121.179	80.003	19.996	100.844	20.286	3.553	0.377
98.999	121.360	80.003	19.996	100.843	20.288	3.382	0.395
99.500	121.566	80.004	19.995	100.842	20.287	3.434	0.398
100.000	121.739	80.003	19.995	100.840	20.285	3.585	0.383
100.500	121.917	80.003	19.995	100.840	20.288	3.377	0.365
101.000	122.124	80.001	19.995	100.838	20.287	3.469	0.368
101.499	122.300	80.001	19.995	100.834	20.288	3.389	0.384
101.999	122.463	80.002	19.996	100.829	20.287	3.442	0.362
102.499	122.686	80.001	19.996	100.823	20.285	3.603	0.363
102.999	122.892	80.001	19.996	100.819	20.288	3.422	0.407
103.499	123.084	80.000	19.995	100.819	20.286	3.541	0.413
104.000	123.283	80.001	19.996	100.823	20.286	3.523	0.394
104.500	123.453	80.001	19.996	100.827	20.288	3.371	0.380
104.999	123.659	80.001	19.996	100.834	20.287	3.458	0.373
105.499	123.846	80.002	19.996	100.839	20.288	3.429	0.385
105.999	124.032	80.001	19.996	100.839	20.284	3.639	0.383
106.499	124.231	80.001	19.997	100.838	20.286	3.539	0.379
106.999	124.461	80.001	19.996	100.841	20.288	3.416	0.407
107.499	124.622	80.001	19.996	100.839	20.289	3.336	0.410
107.999	124.807	80.002	19.996	100.835	20.287	3.438	0.368
108.499	125.040	80.002	19.995	100.834	20.287	3.489	0.382
108.999	125.237	80.001	19.997	100.834	20.284	3.675	0.424
109.499	125.445	80.000	19.997	100.834	20.285	3.608	0.417
109.999	125.685	80.002	19.997	100.835	20.286	3.536	0.426
110.500	125.871	80.001	19.996	100.841	20.285	3.570	0.437
111.000	126.064	80.001	19.996	100.845	20.287	3.494	0.403
111.499	126.291	80.001	19.996	100.847	20.287	3.489	0.399
111.999	126.490	80.001	19.997	100.848	20.287	3.469	0.423
112.499	126.717	80.001	19.996	100.849	20.286	3.507	0.427
112.999	126.933	80.002	19.996	100.846	20.284	3.677	0.434
113.499	127.103	80.001	19.995	100.843	20.289	3.364	0.414
113.999	127.346	80.001	19.997	100.841	20.287	3.479	0.399
114.499	127.506	80.001	19.997	100.840	20.284	3.659	0.408
114.999	127.765	80.001	19.995	100.840	20.284	3.630	0.411
115.499	127.971	80.002	19.996	100.842	20.283	3.699	0.442
115.999	128.153	80.001	19.995	100.841	20.284	3.690	0.426
116.499	128.390	80.002	19.996	100.843	20.285	3.610	0.404
116.999	128.643	80.000	19.996	100.843	20.283	3.738	0.455
117.499	128.817	80.000	19.996	100.843	20.282	3.816	0.459
117.999	129.042	80.001	19.996	100.841	20.284	3.659	0.414
118.499	129.232	80.000	19.996	100.841	20.283	3.709	0.407
118.999	129.476	80.002	19.996	100.841	20.282	3.823	0.424
119.499	129.708	80.002	19.996	100.841	20.283	3.747	0.454
120.000	129.902	80.003	19.997	100.841	20.285	3.615	0.451
120.500	130.093	80.001	19.996	100.843	20.285	3.575	0.406
120.999	130.341	80.003	19.995	100.843	20.283	3.742	0.412
121.499	130.558	80.002	19.996	100.843	20.283	3.724	0.452
121.999	130.781	80.002	19.997	100.843	20.284	3.689	0.453
122.499	130.979	80.002	19.996	100.842	20.282	3.791	0.431
122.999	131.214	80.002	19.997	100.841	20.282	3.789	0.427
123.500	131.429	80.001	19.996	100.841	20.285	3.599	0.441
124.000	131.644	80.002	19.996	100.840	20.284	3.688	0.440
124.499	131.880	80.001	19.996	100.840	20.285	3.624	0.440
125.000	132.109	80.001	19.995	100.840	20.280	3.901	0.458
125.500	132.333	80.001	19.996	100.841	20.283	3.724	0.459
125.999	132.532	80.001	19.996	100.842	20.286	3.557	0.438
126.499	132.770	80.002	19.996	100.843	20.286	3.548	0.430
126.999	132.996	80.001	19.997	100.843	20.283	3.717	0.451
127.499	133.202	80.001	19.997	100.844	20.284	3.655	0.448
127.999	133.448	80.001	19.996	100.844	20.284	3.632	0.442
128.500	133.636	80.001	19.996	100.843	20.282	3.769	0.443
129.000	133.863	80.001	19.995	100.842	20.285	3.612	0.424
129.500	134.067	80.001	19.996	100.842	20.282	3.807	0.423
130.000	134.328	80.001	19.997	100.842	20.285	3.592	0.448
130.500	134.550	80.000	19.995	100.841	20.283	3.702	0.474
131.000	134.796	80.000	19.996	100.840	20.287	3.474	0.476
131.500	135.030	79.999	19.996	100.840	20.281	3.831	0.474
132.000	135.196	80.000	19.996	100.839	20.282	3.796	0.439
132.500	135.451	80.000	19.998	100.837	20.283	3.738	0.410
133.000	135.697	79.998	19.996	100.838	20.285	3.613	0.461
133.500	135.906	79.999	19.996	100.838	20.281	3.831	0.478
134.000	136.156	80.001	19.997	100.839	20.282	3.765	0.457
134.500	136.351	80.000	19.997	100.841	20.282	3.774	0.452
135.000	136.646	80.000	19.997	100.842	20.282	3.771	0.468
135.500	136.872	79.999	19.997	100.842	20.281	3.859	0.506
136.000	137.090	80.001	19.997	100.843	20.284	3.690	0.482
136.500	137.337	79.999	19.997	100.843	20.282	3.805	0.454
137.000	137.587	80.001	19.998	100.843	20.281	3.848	0.481
137.500	137.772	80.001	19.996	100.844	20.283	3.732	0.466
138.000	138.018	79.999	19.997	100.842	20.280	3.899	0.433
138.500	138.250	79.999	19.996	100.842	20.281	3.860	0.455
139.000	138.502	80.000	19.997	100.842	20.282	3.771	0.481
139.500	138.740	79.999	19.997	100.842	20.281	3.878	0.487
140.000	138.978	80.000	19.997	100.842	20.282	3.823	0.483
140.500	139.232	80.000	19.997	100.843	20.281	3.865	0.485
141.000	139.418	79.999	19.997	100.841	20.282	3.805	0.466
141.500	139.660	79.999	19.997	100.841	20.283	3.706	0.434
142.000	139.940	79.999	19.997	100.839	20.281	3.858	0.475
142.500	140.160	80.000	19.997	100.838	20.282	3.809	0.510
143.000	140.436	79.999	19.997	100.835	20.280	3.916	0.498
143.500	140.640	79.999	19.996	100.835	20.281	3.872	0.489
144.000	140.868	80.000	19.996	100.836	20.279	4.005	0.456
144.500	141.113	80.002	19.995	100.837	20.282	3.769	0.452
145.000	141.367	80.000	19.996	100.836	20.284	3.635	0.486
145.500	141.599	80.000	19.996	100.835	20.282	3.793	0.492
146.000	141.839	79.999	19.996	100.829	20.280	3.945	0.479
146.500	142.041	80.001	19.996	100.823	20.277	4.090	0.457
147.000	142.325	80.002	19.996	100.818	20.281	3.831	0.464
147.500	142.516	80.001	19.996	100.818	20.279	3.997	0.480
148.000	142.739	80.001	19.996	100.821	20.278	4.054	0.445
148.500	143.006	80.002	19.994	100.828	20.277	4.119	0.452
149.000	143.257	80.001	19.996	100.832	20.276	4.179	0.504
149.500	143.486	80.001	19.996	100.837	20.278	4.028	0.499
150.000	143.757	80.002	19.996	100.840	20.278	4.059	0.490
150.500	144.015	80.002	19.995	100.839	20.276	4.193	0.514
151.000	144.224	80.002	19.995	100.839	20.275	4.263	0.498
151.500	144.474	80.003	19.995	100.841	20.278	4.079	0.464
152.000	144.694	80.002	19.995	100.840	20.276	4.180	0.465
152.500	144.945	80.002	19.995	100.839	20.275	4.281	0.470
153.000	145.200	80.003	19.995	100.841	20.277	4.152	0.488
153.500	145.433	80.002	19.995	100.841	20.273	4.398	0.497
154.000	145.687	80.001	19.993	100.842	20.273	4.357	0.487
154.500	145.884	80.002	19.996	100.843	20.276	4.203	0.469
155.000	146.175	80.003	19.996	100.843	20.275	4.276	0.469
155.500	146.382	80.002	19.995	100.845	20.274	4.332	0.493
156.000	146.689	80.003	19.996	100.845	20.275	4.276	0.506
156.500	146.885	80.002	19.996	100.845	20.273	4.390	0.509
157.000	147.138	80.001	19.995	100.845	20.274	4.324	0.476
157.500	147.367	80.001	19.995	100.845	20.275	4.232	0.466
158.000	147.617	80.002	19.995	100.845	20.272	4.435	0.480
158.500	147.870	80.001	19.997	100.845	20.275	4.285	0.491
159.000	148.105	80.000	19.996	100.846	20.273	4.363	0.495
159.500	148.334	80.000	19.995	100.846	20.272	4.450	0.476
160.000	148.585	80.002	19.996	100.847	20.272	4.482	0.472
160.500	148.841	80.000	19.996	100.846	20.272	4.446	0.494
161.000	149.077	80.002	19.996	100.846	20.273	4.375	0.500
161.500	149.343	80.001	19.995	100.845	20.271	4.535	0.497
162.000	149.566	80.001	19.996	100.842	20.273	4.368	0.495
162.500	149.824	80.001	19.995	100.837	20.271	4.497	0.485
163.000	150.064	80.002	19.996	100.830	20.271	4.522	0.490
163.500	150.283	80.002	19.995	100.823	20.270	4.551	0.479
164.000	150.545	80.002	19.996	100.819	20.269	4.667	0.469
164.500	150.759	80.003	19.996	100.818	20.271	4.499	0.478
165.000	150.999	80.003	19.997	100.821	20.268	4.692	0.465
165.500	151.240	80.002	19.995	100.825	20.271	4.548	0.468
166.000	151.532	80.002	19.995	100.830	20.269	4.640	0.508
166.500	151.746	80.002	19.995	100.830	20.266	4.824	0.520
167.000	151.987	80.004	19.995	100.830	20.267	4.779	0.480
167.500	152.251	80.003	19.995	100.828	20.265	4.893	0.479
168.000	152.483	80.003	19.996	100.829	20.268	4.732	0.500
168.500	152.730	80.002	19.995	100.830	20.268	4.719	0.488
169.000	152.995	80.002	19.995	100.831	20.268	4.707	0.495
169.500	153.266	80.003	19.996	100.833	20.268	4.725	0.524
170.000	153.494	80.002	19.996	100.834	20.265	4.905	0.518
170.500	153.734	80.002	19.995	100.834	20.268	4.744	0.484
171.000	153.995	80.003	19.995	100.833	20.267	4.807	0.484
171.500	154.200	80.004	19.996	100.835	20.270	4.566	0.483
172.000	154.446	80.003	19.995	100.837	20.266	4.869	0.459
172.500	154.678	80.003	19.995	100.840	20.267	4.802	0.465
