Sample ID:	C:\MCC\MCC Cal\Test\Bean_Bag_Chair_Outer_Cover\Bean_Bag_Chair_Outer_Cover_MCC_30K_min_220316_R4.txt
Sample Weight (mg):	4.58
Heating Rate (C/s):	0.5
Combustor Temp (C):	900
N2 Flow Rate (cc/min):	80
O2 Flow Rate (cc/min):	20
Calibration File:	C:\MCC\MCC Cal\Coeff1 JN10440_30_210304.txt.txt
T Correction Coefficients:	0	1.024463	0
Time Shift (s):	14
*
Time (s)	Temperature (C)	N2 flow rate (cc/min)	O2 flow rate (cc/min)	Flow Rate (cc/min)	Oxygen (%)	HRR (W/g)	Heating rate (C/s)
-0.001	107.609	80.006	19.995	103.694	19.983	0.252	-0.000
0.499	107.637	80.007	19.994	103.689	19.982	0.339	-0.016
1.000	107.597	80.007	19.993	103.689	19.987	-0.040	-0.012
1.500	107.598	80.007	19.993	103.690	19.985	0.094	-0.026
2.000	107.582	80.006	19.994	103.693	19.983	0.231	-0.027
2.500	107.584	80.007	19.992	103.694	19.983	0.269	-0.014
3.000	107.616	80.007	19.992	103.697	19.985	0.075	0.010
3.500	107.560	80.007	19.993	103.694	19.986	0.060	0.005
4.000	107.593	80.008	19.995	103.694	19.980	0.473	-0.024
4.500	107.581	80.006	19.994	103.696	19.988	-0.119	-0.002
5.000	107.594	80.008	19.994	103.701	19.986	0.050	0.011
5.500	107.588	80.006	19.993	103.703	19.985	0.075	0.004
6.000	107.574	80.008	19.994	103.707	19.987	-0.056	-0.007
6.500	107.568	80.005	19.993	103.709	19.986	-0.004	-0.020
7.000	107.559	80.009	19.993	103.709	19.992	-0.418	-0.017
7.500	107.561	80.007	19.994	103.707	19.983	0.250	-0.011
8.000	107.559	80.008	19.993	103.706	19.979	0.523	-0.004
8.500	107.579	80.008	19.994	103.707	19.985	0.085	0.009
9.000	107.570	80.006	19.993	103.709	19.985	0.069	0.015
9.499	107.583	80.006	19.993	103.710	19.982	0.293	0.008
9.999	107.569	80.007	19.992	103.713	19.981	0.408	0.002
10.499	107.545	80.007	19.993	103.713	19.984	0.181	-0.020
10.999	107.603	80.008	19.993	103.714	19.984	0.183	-0.003
11.499	107.593	80.007	19.992	103.714	19.981	0.404	0.041
11.999	107.559	80.007	19.993	103.714	19.976	0.728	0.002
12.500	107.560	80.007	19.993	103.714	19.985	0.100	-0.038
13.000	107.591	80.007	19.992	103.715	19.979	0.558	-0.001
13.500	107.577	80.009	19.993	103.722	19.979	0.547	0.024
14.000	107.549	80.007	19.993	103.729	19.972	0.992	-0.012
14.500	107.582	80.008	19.991	103.736	19.972	0.986	-0.019
15.000	107.603	80.007	19.994	103.745	19.980	0.449	0.029
15.500	107.618	80.009	19.993	103.752	19.977	0.666	0.046
16.000	107.609	80.007	19.993	103.748	19.973	0.953	0.021
16.500	107.647	80.007	19.993	103.743	19.973	0.951	0.017
17.000	107.652	80.008	19.993	103.740	19.971	1.096	0.036
17.500	107.616	80.008	19.995	103.737	19.972	1.030	0.006
18.000	107.595	80.005	19.992	103.736	19.979	0.508	-0.044
18.500	107.658	80.008	19.993	103.734	19.971	1.057	-0.008
19.000	107.663	80.007	19.993	103.741	19.975	0.799	0.055
19.500	107.671	80.008	19.993	103.744	19.976	0.732	0.041
20.000	107.651	80.005	19.993	103.747	19.974	0.846	0.000
20.500	107.705	80.007	19.993	103.751	19.973	0.971	0.011
21.000	107.687	80.006	19.995	103.763	19.973	0.967	0.035
21.500	107.725	80.006	19.992	103.766	19.971	1.102	0.028
22.000	107.734	80.004	19.991	103.769	19.972	0.990	0.033
22.500	107.747	80.006	19.992	103.771	19.974	0.877	0.035
23.000	107.741	80.005	19.994	103.775	19.977	0.644	0.015
23.500	107.761	80.006	19.993	103.777	19.969	1.233	0.010
24.000	107.786	80.005	19.993	103.781	19.970	1.133	0.030
24.500	107.786	80.005	19.994	103.785	19.972	1.052	0.035
25.000	107.844	80.006	19.993	103.790	19.972	1.010	0.041
25.500	107.810	80.005	19.993	103.792	19.969	1.262	0.040
26.000	107.831	80.007	19.992	103.793	19.965	1.513	0.005
26.500	107.833	80.007	19.995	103.798	19.970	1.179	0.005
27.000	107.893	80.005	19.993	103.805	19.966	1.480	0.043
27.500	107.892	80.004	19.994	103.810	19.965	1.540	0.061
28.000	107.973	80.005	19.992	103.815	19.966	1.428	0.070
28.500	107.968	80.006	19.993	103.821	19.964	1.576	0.078
29.000	107.999	80.005	19.994	103.826	19.960	1.865	0.051
29.500	108.041	80.006	19.994	103.832	19.960	1.867	0.050
30.000	108.049	80.006	19.992	103.839	19.960	1.871	0.061
30.500	108.053	80.006	19.994	103.842	19.963	1.649	0.031
31.000	108.106	80.005	19.993	103.843	19.958	2.021	0.034
31.500	108.148	80.004	19.992	103.843	19.956	2.125	0.076
32.000	108.198	80.006	19.994	103.845	19.955	2.225	0.094
32.500	108.249	80.006	19.993	103.848	19.955	2.189	0.096
32.999	108.291	80.007	19.993	103.855	19.954	2.320	0.097
33.499	108.317	80.007	19.995	103.863	19.957	2.106	0.080
33.999	108.358	80.006	19.994	103.870	19.956	2.170	0.067
34.499	108.417	80.006	19.993	103.875	19.952	2.464	0.084
34.999	108.508	80.006	19.993	103.878	19.958	2.017	0.125
35.499	108.549	80.005	19.994	103.878	19.952	2.436	0.141
35.999	108.601	80.005	19.993	103.878	19.947	2.796	0.113
36.499	108.635	80.006	19.993	103.881	19.949	2.683	0.090
36.999	108.697	80.007	19.993	103.884	19.946	2.864	0.091
37.499	108.755	80.004	19.992	103.886	19.951	2.498	0.108
37.999	108.830	80.006	19.993	103.885	19.951	2.473	0.126
38.499	108.881	80.006	19.993	103.884	19.952	2.471	0.129
38.999	108.953	80.008	19.993	103.879	19.953	2.384	0.125
39.499	109.019	80.007	19.993	103.873	19.951	2.492	0.131
39.999	109.078	80.005	19.993	103.868	19.951	2.498	0.132
40.499	109.130	80.007	19.993	103.868	19.947	2.770	0.117
40.999	109.212	80.007	19.994	103.868	19.953	2.374	0.122
41.499	109.301	80.006	19.992	103.868	19.951	2.477	0.153
41.999	109.367	80.007	19.996	103.868	19.948	2.702	0.164
42.500	109.430	80.007	19.993	103.868	19.953	2.369	0.142
43.000	109.517	80.005	19.994	103.869	19.951	2.512	0.139
43.499	109.570	80.007	19.993	103.869	19.950	2.601	0.145
43.999	109.656	80.007	19.993	103.870	19.949	2.653	0.140
44.499	109.749	80.007	19.993	103.870	19.949	2.661	0.159
45.000	109.826	80.009	19.993	103.870	19.951	2.516	0.175
45.500	109.938	80.007	19.993	103.869	19.949	2.641	0.180
45.999	109.987	80.007	19.992	103.869	19.954	2.307	0.175
46.499	110.070	80.008	19.993	103.874	19.947	2.791	0.147
46.999	110.169	80.005	19.995	103.882	19.952	2.437	0.157
47.499	110.245	80.007	19.995	103.889	19.949	2.668	0.178
47.999	110.330	80.008	19.994	103.897	19.949	2.678	0.169
48.499	110.419	80.007	19.994	103.902	19.950	2.599	0.167
48.999	110.510	80.007	19.994	103.904	19.951	2.493	0.177
49.499	110.589	80.007	19.992	103.902	19.952	2.449	0.175
49.999	110.648	80.005	19.993	103.900	19.949	2.624	0.154
50.499	110.746	80.006	19.994	103.896	19.948	2.705	0.147
50.999	110.879	80.008	19.994	103.897	19.950	2.603	0.194
51.499	110.950	80.007	19.994	103.899	19.947	2.800	0.218
51.999	111.034	80.006	19.995	103.901	19.949	2.673	0.180
52.499	111.131	80.007	19.994	103.904	19.944	2.999	0.168
52.999	111.259	80.006	19.993	103.912	19.949	2.659	0.203
53.499	111.358	80.006	19.994	103.920	19.943	3.049	0.226
53.999	111.458	80.006	19.993	103.927	19.941	3.230	0.213
54.500	111.570	80.007	19.994	103.935	19.941	3.216	0.205
55.000	111.651	80.005	19.996	103.942	19.940	3.292	0.202
55.500	111.796	80.006	19.995	103.943	19.943	3.099	0.209
56.001	111.838	80.007	19.994	103.937	19.939	3.376	0.207
56.500	111.983	80.007	19.994	103.929	19.943	3.106	0.188
56.999	112.101	80.006	19.994	103.921	19.940	3.286	0.225
57.499	112.225	80.006	19.994	103.918	19.940	3.282	0.253
57.999	112.335	80.007	19.994	103.920	19.941	3.240	0.238
58.499	112.468	80.005	19.994	103.927	19.938	3.411	0.238
58.999	112.630	80.006	19.994	103.934	19.938	3.460	0.269
59.499	112.689	80.006	19.994	103.942	19.940	3.255	0.258
60.000	112.849	80.007	19.994	103.945	19.939	3.348	0.220
60.501	112.944	80.005	19.994	103.945	19.939	3.338	0.237
61.001	113.088	80.006	19.995	103.944	19.938	3.461	0.247
61.501	113.221	80.006	19.994	103.945	19.942	3.122	0.257
62.000	113.370	80.006	19.995	103.946	19.933	3.766	0.280
62.499	113.508	80.006	19.993	103.948	19.934	3.720	0.285
62.999	113.651	80.007	19.995	103.953	19.935	3.645	0.284
63.500	113.754	80.006	19.994	103.954	19.938	3.410	0.264
64.000	113.912	80.006	19.993	103.955	19.934	3.707	0.254
64.499	114.004	80.007	19.994	103.955	19.935	3.664	0.256
65.000	114.179	80.007	19.993	103.952	19.932	3.878	0.258
65.500	114.278	80.006	19.993	103.949	19.935	3.639	0.270
65.999	114.447	80.007	19.994	103.949	19.936	3.550	0.271
66.499	114.562	80.006	19.993	103.948	19.931	3.903	0.276
66.999	114.707	80.008	19.994	103.949	19.929	4.048	0.272
67.499	114.856	80.007	19.993	103.951	19.931	3.923	0.278
67.999	114.973	80.009	19.993	103.952	19.935	3.662	0.280
68.499	115.132	80.008	19.993	103.952	19.935	3.643	0.271
68.999	115.291	80.008	19.992	103.956	19.933	3.766	0.297
69.499	115.380	80.007	19.994	103.958	19.931	3.917	0.283
69.999	115.565	80.008	19.995	103.960	19.935	3.670	0.261
70.499	115.725	80.009	19.995	103.961	19.931	3.897	0.310
70.999	115.879	80.008	19.994	103.962	19.934	3.706	0.330
71.499	116.015	80.007	19.994	103.960	19.935	3.653	0.302
71.999	116.186	80.008	19.993	103.957	19.936	3.591	0.298
72.499	116.327	80.008	19.994	103.958	19.932	3.861	0.309
72.999	116.471	80.007	19.993	103.959	19.928	4.106	0.298
73.499	116.686	80.009	19.995	103.961	19.929	4.061	0.322
73.999	116.805	80.008	19.996	103.963	19.930	4.003	0.347
74.499	117.009	80.008	19.994	103.969	19.930	3.969	0.329
74.999	117.175	80.006	19.996	103.970	19.929	4.079	0.346
75.499	117.302	80.007	19.995	103.967	19.932	3.869	0.331
75.999	117.477	80.007	19.995	103.965	19.930	3.961	0.298
76.499	117.670	80.007	19.993	103.963	19.931	3.909	0.335
76.999	117.825	80.009	19.994	103.961	19.930	3.971	0.358
77.499	117.968	80.007	19.993	103.958	19.933	3.811	0.323
77.999	118.152	80.007	19.993	103.962	19.927	4.204	0.313
78.499	118.331	80.008	19.993	103.964	19.931	3.940	0.345
78.999	118.469	80.007	19.994	103.966	19.928	4.124	0.340
79.499	118.717	80.007	19.994	103.962	19.929	4.039	0.352
79.999	118.787	80.006	19.994	103.961	19.932	3.848	0.352
80.500	118.995	80.005	19.994	103.957	19.929	4.083	0.298
81.000	119.180	80.007	19.993	103.957	19.928	4.172	0.336
81.499	119.369	80.006	19.993	103.959	19.933	3.809	0.384
81.999	119.531	80.005	19.993	103.960	19.928	4.124	0.362
82.499	119.724	80.006	19.995	103.962	19.932	3.844	0.353
82.999	119.871	80.006	19.993	103.962	19.929	4.048	0.347
83.499	120.080	80.006	19.994	103.961	19.929	4.075	0.348
83.999	120.282	80.004	19.994	103.957	19.930	4.010	0.384
84.499	120.450	80.005	19.994	103.955	19.929	4.083	0.391
84.999	120.618	80.007	19.994	103.954	19.930	4.022	0.353
85.499	120.817	80.007	19.994	103.958	19.929	4.089	0.351
85.999	121.024	80.007	19.995	103.961	19.928	4.157	0.386
86.499	121.198	80.006	19.995	103.966	19.929	4.060	0.393
86.999	121.395	80.008	19.994	103.968	19.931	3.902	0.376
87.500	121.542	80.006	19.994	103.971	19.931	3.936	0.358
88.000	121.777	80.006	19.994	103.974	19.930	4.029	0.363
88.499	121.977	80.006	19.994	103.971	19.928	4.137	0.408
88.999	122.150	80.007	19.994	103.969	19.928	4.159	0.404
89.500	122.373	80.008	19.994	103.972	19.929	4.102	0.385
90.000	122.556	80.007	19.994	103.974	19.926	4.244	0.401
90.499	122.765	80.008	19.995	103.974	19.923	4.488	0.399
90.999	122.952	80.008	19.994	103.979	19.926	4.308	0.394
91.499	123.167	80.008	19.994	103.981	19.927	4.222	0.399
91.999	123.372	80.009	19.994	103.982	19.923	4.525	0.411
92.499	123.543	80.009	19.993	103.981	19.926	4.303	0.398
92.999	123.766	80.008	19.994	103.979	19.924	4.401	0.385
93.499	123.961	80.008	19.995	103.975	19.922	4.565	0.406
94.000	124.196	80.009	19.995	103.975	19.924	4.449	0.424
94.500	124.347	80.009	19.994	103.974	19.924	4.413	0.408
94.999	124.576	80.009	19.994	103.975	19.923	4.507	0.383
95.499	124.781	80.009	19.994	103.976	19.925	4.364	0.407
95.999	124.969	80.008	19.994	103.981	19.926	4.291	0.414
96.499	125.172	80.009	19.994	103.981	19.929	4.095	0.392
97.000	125.398	80.009	19.995	103.979	19.927	4.228	0.410
97.500	125.594	80.010	19.994	103.979	19.926	4.259	0.425
97.999	125.793	80.010	19.995	103.975	19.926	4.249	0.408
98.499	126.036	80.009	19.993	103.970	19.926	4.282	0.419
98.999	126.272	80.009	19.992	103.965	19.926	4.264	0.461
99.499	126.425	80.010	19.993	103.960	19.925	4.355	0.434
99.999	126.637	80.009	19.993	103.955	19.927	4.191	0.377
100.499	126.884	80.008	19.992	103.953	19.926	4.245	0.412
100.999	127.085	80.008	19.992	103.958	19.924	4.407	0.453
101.499	127.304	80.009	19.993	103.961	19.928	4.145	0.434
101.999	127.500	80.008	19.993	103.964	19.923	4.509	0.417
102.499	127.696	80.007	19.993	103.965	19.924	4.440	0.403
102.999	127.933	80.008	19.993	103.969	19.928	4.119	0.413
103.499	128.136	80.009	19.993	103.965	19.928	4.122	0.437
103.999	128.355	80.008	19.993	103.963	19.923	4.461	0.431
104.500	128.581	80.007	19.992	103.964	19.926	4.291	0.434
105.000	128.828	80.006	19.993	103.965	19.926	4.297	0.459
105.499	129.009	80.006	19.993	103.965	19.924	4.411	0.450
105.999	129.231	80.007	19.992	103.965	19.923	4.491	0.415
106.500	129.468	80.007	19.993	103.967	19.924	4.393	0.431
107.000	129.692	80.006	19.994	103.970	19.925	4.347	0.460
107.499	129.881	80.007	19.993	103.974	19.925	4.355	0.437
107.999	130.109	80.008	19.995	103.976	19.925	4.353	0.415
108.499	130.381	80.007	19.994	103.978	19.926	4.245	0.458
108.999	130.584	80.007	19.993	103.978	19.927	4.195	0.488
109.499	130.826	80.007	19.993	103.976	19.923	4.527	0.460
110.000	131.023	80.007	19.994	103.976	19.926	4.293	0.442
110.500	131.282	80.008	19.993	103.976	19.926	4.255	0.448
110.999	131.511	80.006	19.993	103.973	19.926	4.285	0.472
111.499	131.713	80.007	19.993	103.973	19.925	4.337	0.459
111.999	131.952	80.006	19.994	103.972	19.925	4.345	0.436
112.499	132.185	80.007	19.994	103.969	19.925	4.353	0.456
112.999	132.397	80.007	19.994	103.968	19.925	4.370	0.459
113.499	132.601	80.005	19.993	103.971	19.923	4.466	0.431
113.999	132.820	80.008	19.993	103.967	19.925	4.318	0.419
114.500	133.079	80.005	19.993	103.970	19.925	4.351	0.450
115.000	133.288	80.007	19.993	103.969	19.924	4.440	0.473
115.499	133.531	80.006	19.994	103.965	19.925	4.386	0.460
115.999	133.767	80.006	19.993	103.962	19.923	4.507	0.466
116.500	133.986	80.006	19.993	103.966	19.923	4.465	0.467
117.000	134.229	80.007	19.993	103.961	19.922	4.538	0.458
117.499	134.437	80.006	19.994	103.962	19.926	4.297	0.457
117.999	134.676	80.006	19.993	103.965	19.923	4.514	0.449
118.499	134.920	80.006	19.994	103.967	19.922	4.537	0.465
118.999	135.147	80.006	19.993	103.969	19.922	4.541	0.477
119.499	135.409	80.006	19.993	103.972	19.924	4.437	0.480
119.999	135.623	80.005	19.994	103.974	19.922	4.570	0.483
120.499	135.873	80.006	19.993	103.973	19.920	4.688	0.470
120.999	136.083	80.006	19.994	103.974	19.924	4.447	0.462
121.499	136.323	80.006	19.994	103.972	19.922	4.551	0.455
121.999	136.564	80.006	19.994	103.970	19.923	4.503	0.465
122.499	136.823	80.007	19.994	103.968	19.921	4.607	0.491
123.000	137.035	80.006	19.993	103.968	19.927	4.204	0.485
123.500	137.255	80.007	19.993	103.966	19.924	4.389	0.451
123.999	137.519	80.008	19.993	103.964	19.923	4.493	0.458
124.499	137.777	80.007	19.993	103.961	19.921	4.634	0.503
124.999	138.048	80.007	19.994	103.963	19.920	4.679	0.525
125.499	138.234	80.006	19.993	103.967	19.922	4.569	0.493
125.999	138.497	80.006	19.993	103.968	19.922	4.561	0.453
126.499	138.700	80.007	19.992	103.969	19.924	4.434	0.457
126.999	138.955	80.008	19.993	103.968	19.921	4.631	0.462
127.499	139.205	80.006	19.993	103.963	19.922	4.561	0.482
128.000	139.432	80.007	19.994	103.959	19.923	4.484	0.491
128.500	139.691	80.006	19.994	103.959	19.921	4.618	0.481
129.000	139.952	80.007	19.994	103.956	19.921	4.601	0.503
129.500	140.167	80.006	19.994	103.956	19.924	4.441	0.498
130.000	140.438	80.006	19.994	103.956	19.925	4.315	0.481
130.500	140.663	80.006	19.993	103.955	19.924	4.431	0.492
131.000	140.902	80.007	19.992	103.954	19.924	4.423	0.480
131.500	141.127	80.006	19.994	103.959	19.922	4.593	0.463
132.000	141.403	80.007	19.993	103.963	19.924	4.425	0.482
132.500	141.615	80.005	19.993	103.965	19.923	4.468	0.495
133.000	141.848	80.006	19.994	103.963	19.928	4.173	0.467
133.500	142.110	80.005	19.993	103.960	19.923	4.479	0.470
134.000	142.325	80.006	19.994	103.956	19.924	4.443	0.486
134.500	142.621	80.005	19.992	103.956	19.924	4.398	0.494
135.000	142.853	80.008	19.993	103.957	19.927	4.186	0.519
135.500	143.067	80.005	19.993	103.959	19.926	4.294	0.487
136.000	143.338	80.005	19.993	103.965	19.923	4.460	0.466
136.500	143.605	80.005	19.993	103.970	19.926	4.300	0.512
137.000	143.825	80.006	19.994	103.971	19.922	4.545	0.512
137.500	144.099	80.004	19.993	103.971	19.925	4.356	0.491
138.000	144.367	80.005	19.993	103.970	19.926	4.298	0.518
138.500	144.594	80.004	19.994	103.964	19.922	4.564	0.519
139.000	144.841	80.003	19.993	103.958	19.922	4.549	0.484
139.500	145.083	80.006	19.992	103.953	19.922	4.574	0.481
140.000	145.316	80.005	19.993	103.950	19.923	4.502	0.482
140.500	145.617	80.004	19.994	103.949	19.925	4.383	0.505
141.000	145.840	80.006	19.993	103.949	19.920	4.711	0.529
141.500	146.097	80.007	19.993	103.950	19.924	4.429	0.502
142.000	146.316	80.005	19.994	103.950	19.924	4.418	0.478
142.500	146.567	80.004	19.994	103.949	19.923	4.497	0.473
143.000	146.807	80.005	19.993	103.949	19.923	4.497	0.481
143.500	147.068	80.007	19.993	103.949	19.924	4.402	0.496
144.000	147.296	80.005	19.994	103.950	19.926	4.300	0.495
144.500	147.578	80.005	19.993	103.951	19.926	4.296	0.499
145.000	147.801	80.005	19.993	103.951	19.923	4.498	0.507
145.500	148.044	80.006	19.992	103.951	19.924	4.412	0.486
146.000	148.275	80.006	19.994	103.952	19.919	4.778	0.470
146.500	148.598	80.007	19.992	103.950	19.923	4.479	0.514
147.000	148.848	80.006	19.992	103.949	19.923	4.462	0.563
147.500	149.086	80.006	19.994	103.949	19.926	4.294	0.531
148.000	149.340	80.007	19.994	103.949	19.927	4.236	0.490
148.500	149.563	80.007	19.993	103.949	19.922	4.539	0.484
149.000	149.850	80.005	19.994	103.949	19.923	4.504	0.494
149.500	150.085	80.007	19.994	103.948	19.920	4.676	0.516
150.000	150.321	80.006	19.993	103.949	19.922	4.539	0.496
150.500	150.593	80.007	19.993	103.949	19.923	4.514	0.489
151.000	150.798	80.006	19.994	103.949	19.924	4.402	0.493
151.500	151.079	80.007	19.995	103.949	19.917	4.890	0.482
152.000	151.318	80.007	19.994	103.949	19.919	4.795	0.503
152.500	151.564	80.007	19.994	103.949	19.924	4.414	0.502
153.000	151.846	80.007	19.994	103.949	19.920	4.737	0.506
153.500	152.072	80.008	19.994	103.949	19.923	4.502	0.518
154.000	152.324	80.008	19.994	103.948	19.923	4.500	0.493
154.500	152.588	80.009	19.995	103.948	19.924	4.406	0.497
155.000	152.819	80.007	19.993	103.947	19.922	4.585	0.506
155.500	153.078	80.009	19.994	103.947	19.923	4.460	0.492
156.000	153.340	80.008	19.996	103.947	19.926	4.290	0.505
156.500	153.534	80.008	19.994	103.946	19.924	4.437	0.488
157.000	153.813	80.007	19.995	103.946	19.923	4.485	0.464
157.500	154.043	80.006	19.995	103.946	19.922	4.591	0.491
158.000	154.289	80.007	19.994	103.946	19.923	4.485	0.493
158.500	154.565	80.008	19.994	103.946	19.922	4.583	0.499
159.000	154.785	80.008	19.995	103.945	19.921	4.620	0.509
159.500	155.014	80.007	19.994	103.945	19.920	4.722	0.473
160.000	155.258	80.006	19.994	103.945	19.920	4.676	0.461
160.500	155.537	80.007	19.994	103.944	19.923	4.494	0.498
161.000	155.755	80.007	19.993	103.943	19.923	4.494	0.510
161.500	156.004	80.008	19.995	103.943	19.918	4.851	0.482
162.000	156.289	80.008	19.995	103.944	19.922	4.566	0.501
162.500	156.520	80.006	19.994	103.943	19.922	4.587	0.525
163.000	156.751	80.006	19.994	103.944	19.917	4.893	0.489
163.500	157.013	80.008	19.995	103.944	19.920	4.670	0.478
164.000	157.270	80.006	19.994	103.944	19.921	4.606	0.506
164.500	157.517	80.008	19.994	103.944	19.922	4.560	0.512
165.000	157.734	80.006	19.995	103.945	19.920	4.691	0.484
165.500	157.999	80.007	19.993	103.944	19.923	4.502	0.473
166.000	158.197	80.006	19.994	103.945	19.922	4.529	0.473
166.500	158.497	80.006	19.995	103.945	19.920	4.712	0.481
167.000	158.716	80.007	19.996	103.945	19.922	4.593	0.508
167.500	158.985	80.007	19.995	103.944	19.923	4.502	0.503
168.000	159.269	80.006	19.996	103.945	19.921	4.604	0.520
168.500	159.535	80.007	19.995	103.945	19.922	4.567	0.552
169.000	159.738	80.007	19.995	103.944	19.925	4.336	0.510
169.500	159.995	80.008	19.995	103.944	19.920	4.725	0.464
170.000	160.245	80.006	19.996	103.944	19.924	4.386	0.484
170.500	160.457	80.009	19.995	103.943	19.923	4.478	0.485
171.000	160.733	80.007	19.995	103.943	19.924	4.449	0.475
171.500	160.998	80.009	19.995	103.942	19.924	4.385	0.514
172.000	161.233	80.008	19.995	103.943	19.922	4.533	0.520
