Sample ID:	C:\MCC\MCC Cal\Test\PineLap_SidingA_MCC_30K_min_211119_R1.txt
Sample Weight (mg):	4.77
Heating Rate (C/s):	0.5
Combustor Temp (C):	900
N2 Flow Rate (cc/min):	80
O2 Flow Rate (cc/min):	20
Calibration File:	C:\MCC\MCC Cal\Coeff1 JN10440_30_210304.txt.txt
T Correction Coefficients:	0	1.024463	0
Time Shift (s):	14
*
Time (s)	Temperature (C)	N2 flow rate (cc/min)	O2 flow rate (cc/min)	Flow Rate (cc/min)	Oxygen (%)	HRR (W/g)	Heating rate (C/s)
0.000	106.680	80.005	19.995	103.038	20.289	-0.185	0.020
0.500	106.694	80.006	19.999	103.034	20.284	0.128	-0.011
1.000	106.671	80.007	20.000	103.036	20.286	0.002	-0.014
1.500	106.682	80.006	19.997	103.039	20.285	0.064	-0.011
2.000	106.680	80.007	19.998	103.040	20.286	0.026	-0.001
2.500	106.662	80.006	19.996	103.046	20.284	0.156	-0.005
3.001	106.664	80.006	19.996	103.052	20.290	-0.232	-0.018
3.500	106.660	80.006	19.994	103.050	20.286	-0.007	-0.009
4.000	106.680	80.006	19.994	103.045	20.286	0.051	0.007
4.500	106.661	80.007	19.995	103.040	20.285	0.104	0.009
5.000	106.691	80.006	19.995	103.036	20.288	-0.132	0.006
5.500	106.691	80.007	19.997	103.036	20.284	0.163	0.021
6.000	106.653	80.006	19.995	103.038	20.285	0.086	-0.004
6.500	106.669	80.006	19.996	103.043	20.283	0.249	-0.030
7.000	106.674	80.006	19.995	103.049	20.282	0.262	-0.000
7.500	106.674	80.007	19.997	103.053	20.283	0.209	0.013
8.000	106.683	80.005	19.996	103.055	20.283	0.240	0.007
8.500	106.693	80.006	19.995	103.055	20.285	0.062	0.014
9.000	106.686	80.006	19.996	103.055	20.283	0.240	0.011
9.500	106.692	80.006	19.993	103.054	20.282	0.302	0.001
10.000	106.679	80.006	19.995	103.055	20.283	0.216	-0.004
10.500	106.695	80.007	19.994	103.055	20.282	0.282	-0.002
11.000	106.688	80.005	19.994	103.056	20.282	0.319	0.006
11.500	106.660	80.007	19.995	103.057	20.284	0.154	-0.013
12.001	106.668	80.007	19.993	103.058	20.280	0.425	-0.028
12.501	106.664	80.007	19.995	103.059	20.284	0.135	-0.008
13.001	106.698	80.007	19.994	103.064	20.284	0.187	0.017
13.501	106.715	80.006	19.996	103.076	20.282	0.322	0.040
14.001	106.763	80.006	19.994	103.083	20.282	0.311	0.058
14.501	106.759	80.006	19.995	103.094	20.279	0.476	0.054
15.001	106.745	80.006	19.996	103.109	20.280	0.454	0.013
15.501	106.765	80.006	19.995	103.126	20.279	0.485	-0.006
16.000	106.764	80.007	19.996	103.130	20.279	0.498	0.012
16.500	106.799	80.006	19.996	103.137	20.277	0.597	0.026
17.000	106.817	80.006	19.997	103.135	20.278	0.588	0.043
17.500	106.856	80.006	19.997	103.126	20.277	0.626	0.055
18.000	106.832	80.006	19.996	103.117	20.278	0.566	0.036
18.500	106.835	80.007	19.996	103.116	20.278	0.582	-0.003
19.000	106.854	80.007	19.997	103.115	20.275	0.760	0.000
19.500	106.862	80.006	19.994	103.118	20.274	0.818	0.024
20.000	106.920	80.005	19.994	103.118	20.275	0.747	0.046
20.500	106.903	80.005	19.996	103.114	20.276	0.689	0.054
21.000	106.912	80.006	19.995	103.108	20.274	0.831	0.016
21.500	106.946	80.006	19.995	103.103	20.275	0.738	0.017
22.000	106.948	80.006	19.995	103.101	20.274	0.824	0.040
22.500	106.973	80.004	19.996	103.105	20.274	0.806	0.032
23.000	107.020	80.005	19.996	103.105	20.276	0.713	0.049
23.500	107.032	80.005	19.995	103.105	20.274	0.841	0.065
24.000	107.060	80.003	19.995	103.103	20.274	0.850	0.050
24.500	107.087	80.006	19.995	103.100	20.275	0.747	0.048
25.000	107.080	80.004	19.996	103.096	20.276	0.692	0.037
25.500	107.138	80.005	19.996	103.095	20.277	0.623	0.036
26.000	107.155	80.003	19.996	103.095	20.276	0.691	0.063
26.500	107.192	80.004	19.995	103.093	20.277	0.605	0.064
27.000	107.214	80.005	19.997	103.093	20.273	0.878	0.056
27.500	107.229	80.005	19.996	103.092	20.274	0.801	0.048
28.000	107.242	80.005	19.995	103.092	20.274	0.823	0.032
28.500	107.246	80.006	19.994	103.095	20.272	0.947	0.023
29.000	107.309	80.003	19.998	103.102	20.274	0.852	0.042
29.500	107.311	80.004	19.996	103.106	20.270	1.121	0.066
30.000	107.340	80.003	19.994	103.114	20.268	1.206	0.048
30.500	107.391	80.003	19.993	103.122	20.268	1.257	0.055
31.000	107.413	80.003	19.995	103.129	20.266	1.347	0.077
31.500	107.418	80.002	19.998	103.140	20.269	1.202	0.050
32.000	107.465	80.004	19.994	103.155	20.265	1.420	0.039
32.500	107.504	80.003	19.996	103.165	20.264	1.538	0.069
33.000	107.527	80.005	19.994	103.174	20.263	1.557	0.074
33.500	107.574	80.005	19.996	103.184	20.263	1.561	0.066
34.001	107.592	80.004	19.994	103.186	20.264	1.494	0.068
34.501	107.633	80.006	19.996	103.183	20.262	1.650	0.062
35.001	107.667	80.004	19.995	103.183	20.263	1.571	0.067
35.500	107.686	80.006	19.995	103.185	20.261	1.735	0.064
36.000	107.775	80.006	19.994	103.182	20.258	1.944	0.080
36.500	107.775	80.006	19.995	103.187	20.258	1.898	0.098
37.000	107.825	80.006	19.994	103.189	20.259	1.850	0.070
37.500	107.876	80.007	19.994	103.195	20.258	1.943	0.076
38.000	107.937	80.005	19.994	103.200	20.259	1.873	0.107
38.500	107.976	80.006	19.994	103.205	20.255	2.108	0.106
39.000	108.044	80.006	19.994	103.205	20.258	1.915	0.103
39.500	108.101	80.007	19.994	103.210	20.253	2.231	0.116
40.001	108.143	80.005	19.995	103.212	20.253	2.249	0.112
40.501	108.193	80.007	19.994	103.211	20.251	2.420	0.095
41.000	108.259	80.008	19.995	103.216	20.250	2.471	0.104
41.501	108.328	80.007	19.995	103.203	20.249	2.497	0.126
42.001	108.333	80.010	19.995	103.186	20.251	2.407	0.105
42.501	108.396	80.007	19.993	103.172	20.249	2.521	0.071
43.000	108.469	80.007	19.995	103.164	20.249	2.504	0.102
43.500	108.532	80.008	19.993	103.151	20.250	2.436	0.136
44.000	108.575	80.008	19.994	103.163	20.249	2.508	0.121
44.500	108.645	80.008	19.994	103.182	20.249	2.554	0.109
45.000	108.719	80.008	19.994	103.215	20.246	2.719	0.128
45.500	108.811	80.009	19.994	103.257	20.248	2.582	0.155
46.000	108.878	80.008	19.994	103.282	20.247	2.648	0.163
46.500	108.959	80.007	19.993	103.289	20.251	2.398	0.154
47.000	109.018	80.008	19.994	103.295	20.247	2.627	0.144
47.500	109.136	80.010	19.994	103.282	20.248	2.614	0.159
48.000	109.193	80.010	19.995	103.254	20.249	2.526	0.176
48.500	109.285	80.007	19.993	103.244	20.247	2.632	0.162
49.000	109.366	80.008	19.994	103.243	20.248	2.603	0.161
49.500	109.432	80.009	19.995	103.239	20.246	2.697	0.160
50.000	109.564	80.009	19.995	103.240	20.247	2.627	0.172
50.500	109.632	80.008	19.995	103.240	20.248	2.566	0.199
51.000	109.719	80.009	19.996	103.238	20.244	2.840	0.177
51.500	109.846	80.008	19.995	103.240	20.245	2.814	0.184
52.000	109.873	80.008	19.995	103.244	20.245	2.779	0.184
52.500	109.974	80.008	19.994	103.244	20.245	2.776	0.141
53.001	110.064	80.009	19.995	103.245	20.242	2.996	0.159
53.501	110.203	80.007	19.995	103.247	20.243	2.919	0.210
54.000	110.218	80.008	19.995	103.248	20.245	2.816	0.192
54.500	110.355	80.007	19.995	103.250	20.242	2.972	0.153
55.000	110.449	80.008	19.995	103.256	20.241	3.052	0.191
55.500	110.557	80.006	19.995	103.262	20.243	2.898	0.216
56.000	110.695	80.007	19.994	103.265	20.241	3.032	0.224
56.500	110.778	80.006	19.995	103.272	20.244	2.889	0.234
57.000	110.868	80.007	19.994	103.272	20.239	3.214	0.197
57.501	111.002	80.008	19.993	103.268	20.242	2.968	0.198
58.001	111.116	80.006	19.994	103.262	20.238	3.276	0.236
58.501	111.213	80.007	19.994	103.261	20.242	2.987	0.229
59.001	111.314	80.008	19.994	103.256	20.241	3.042	0.205
59.501	111.434	80.008	19.996	103.254	20.238	3.253	0.210
60.001	111.540	80.006	19.994	103.252	20.240	3.104	0.223
60.501	111.677	80.008	19.994	103.251	20.240	3.153	0.234
61.001	111.798	80.006	19.995	103.250	20.239	3.185	0.250
61.501	111.947	80.007	19.994	103.249	20.241	3.084	0.264
62.000	112.046	80.008	19.995	103.248	20.239	3.165	0.259
62.500	112.160	80.009	19.994	103.248	20.241	3.071	0.230
63.000	112.261	80.007	19.994	103.251	20.241	3.058	0.214
63.500	112.387	80.008	19.995	103.255	20.240	3.134	0.221
64.000	112.557	80.007	19.994	103.258	20.242	2.994	0.261
64.500	112.636	80.008	19.994	103.259	20.243	2.943	0.272
65.000	112.737	80.009	19.993	103.261	20.243	2.934	0.215
65.500	112.870	80.008	19.994	103.258	20.244	2.837	0.207
66.000	113.016	80.007	19.994	103.255	20.239	3.209	0.256
66.500	113.140	80.007	19.994	103.251	20.243	2.923	0.274
67.000	113.283	80.007	19.994	103.251	20.243	2.908	0.269
67.500	113.421	80.009	19.994	103.250	20.241	3.035	0.274
68.000	113.560	80.007	19.994	103.255	20.239	3.167	0.278
68.500	113.675	80.007	19.994	103.258	20.241	3.075	0.265
69.000	113.806	80.008	19.994	103.262	20.243	2.952	0.250
69.500	113.949	80.009	19.995	103.263	20.240	3.135	0.260
70.000	114.092	80.010	19.994	103.264	20.240	3.159	0.280
70.500	114.237	80.010	19.994	103.266	20.240	3.158	0.287
71.000	114.364	80.009	19.994	103.268	20.238	3.282	0.280
71.500	114.562	80.010	19.993	103.265	20.237	3.363	0.298
72.000	114.668	80.010	19.994	103.267	20.238	3.259	0.315
72.500	114.805	80.009	19.993	103.271	20.239	3.213	0.274
73.000	114.955	80.009	19.994	103.268	20.236	3.409	0.265
73.500	115.083	80.009	19.993	103.269	20.240	3.123	0.282
74.001	115.214	80.005	19.992	103.274	20.239	3.178	0.269
74.501	115.362	80.008	19.995	103.277	20.242	3.013	0.269
75.000	115.528	80.008	19.994	103.279	20.238	3.296	0.297
75.500	115.657	80.008	19.994	103.283	20.239	3.193	0.305
76.000	115.815	80.005	19.992	103.285	20.236	3.393	0.291
76.501	115.964	80.005	19.993	103.286	20.240	3.097	0.297
77.001	116.113	80.006	19.993	103.288	20.240	3.134	0.303
77.500	116.270	80.006	19.994	103.288	20.238	3.268	0.302
78.000	116.426	80.007	19.994	103.285	20.238	3.263	0.309
78.500	116.562	80.005	19.992	103.282	20.238	3.298	0.302
79.000	116.736	80.006	19.994	103.275	20.237	3.318	0.301
79.500	116.908	80.006	19.993	103.273	20.237	3.311	0.328
80.000	117.029	80.006	19.995	103.270	20.240	3.129	0.320
80.500	117.228	80.006	19.994	103.272	20.238	3.268	0.307
81.000	117.394	80.005	19.994	103.274	20.236	3.373	0.342
81.500	117.562	80.004	19.995	103.281	20.239	3.221	0.349
82.000	117.721	80.007	19.994	103.285	20.237	3.340	0.330
82.500	117.880	80.006	19.994	103.288	20.236	3.371	0.322
83.000	118.044	80.007	19.995	103.288	20.237	3.338	0.320
83.500	118.216	80.005	19.995	103.289	20.237	3.327	0.330
84.000	118.344	80.007	19.995	103.290	20.239	3.211	0.318
84.501	118.527	80.006	19.994	103.290	20.237	3.301	0.305
85.001	118.675	80.005	19.995	103.291	20.234	3.530	0.321
85.501	118.841	80.007	19.994	103.292	20.235	3.439	0.323
86.001	119.032	80.006	19.994	103.292	20.235	3.481	0.336
86.501	119.178	80.007	19.994	103.292	20.237	3.325	0.347
87.001	119.359	80.006	19.994	103.291	20.233	3.573	0.332
87.500	119.560	80.004	19.996	103.291	20.234	3.547	0.354
88.000	119.724	80.006	19.994	103.293	20.233	3.603	0.374
88.500	119.901	80.004	19.995	103.294	20.233	3.582	0.353
89.000	120.094	80.007	19.995	103.298	20.234	3.513	0.355
89.500	120.236	80.004	19.994	103.300	20.232	3.656	0.352
90.000	120.431	80.006	19.996	103.302	20.230	3.797	0.336
90.501	120.631	80.007	19.995	103.306	20.234	3.564	0.366
91.001	120.765	80.006	19.994	103.309	20.231	3.747	0.365
91.500	120.951	80.008	19.995	103.307	20.230	3.796	0.327
92.000	121.148	80.006	19.995	103.305	20.231	3.720	0.352
92.500	121.331	80.005	19.994	103.303	20.228	3.962	0.381
93.000	121.511	80.005	19.995	103.296	20.231	3.714	0.371
93.500	121.706	80.006	19.995	103.292	20.228	3.916	0.369
94.000	121.856	80.005	19.994	103.292	20.229	3.878	0.360
94.500	122.068	80.008	19.995	103.293	20.229	3.890	0.354
95.000	122.286	80.005	19.994	103.294	20.230	3.798	0.396
95.501	122.487	80.006	19.994	103.295	20.229	3.864	0.425
96.001	122.648	80.007	19.994	103.296	20.229	3.883	0.391
96.500	122.847	80.005	19.994	103.297	20.231	3.728	0.361
97.000	123.072	80.006	19.994	103.297	20.230	3.826	0.391
97.501	123.235	80.005	19.994	103.298	20.231	3.750	0.406
98.001	123.405	80.005	19.993	103.304	20.231	3.707	0.361
98.500	123.572	80.006	19.994	103.310	20.232	3.685	0.335
99.000	123.797	80.005	19.994	103.313	20.227	4.022	0.364
99.500	124.007	80.006	19.995	103.314	20.229	3.855	0.413
100.000	124.127	80.006	19.994	103.313	20.233	3.622	0.383
100.500	124.371	80.005	19.994	103.309	20.228	3.941	0.347
101.000	124.580	80.005	19.994	103.304	20.229	3.873	0.409
101.500	124.733	80.007	19.994	103.299	20.229	3.882	0.408
102.000	124.961	80.006	19.995	103.298	20.229	3.846	0.371
102.500	125.145	80.005	19.994	103.300	20.228	3.963	0.396
103.000	125.372	80.004	19.994	103.302	20.230	3.784	0.412
103.500	125.525	80.005	19.993	103.307	20.232	3.653	0.395
104.000	125.718	80.004	19.994	103.310	20.227	4.004	0.363
104.500	125.917	80.005	19.995	103.310	20.227	4.002	0.370
105.000	126.132	80.008	19.995	103.312	20.228	3.953	0.403
105.500	126.334	80.006	19.995	103.309	20.230	3.776	0.415
106.000	126.550	80.006	19.994	103.302	20.228	3.925	0.417
106.500	126.752	80.008	19.995	103.298	20.229	3.899	0.419
107.000	126.925	80.003	19.994	103.296	20.228	3.934	0.397
107.500	127.162	80.005	19.995	103.293	20.231	3.764	0.392
108.000	127.332	80.006	19.995	103.293	20.229	3.905	0.409
108.500	127.544	80.006	19.996	103.294	20.229	3.885	0.395
109.000	127.763	80.004	19.995	103.299	20.231	3.754	0.407
109.501	127.943	80.004	19.995	103.304	20.227	4.038	0.415
110.001	128.177	80.005	19.996	103.305	20.225	4.127	0.406
110.500	128.404	80.006	19.996	103.308	20.229	3.892	0.437
111.000	128.600	80.005	19.995	103.306	20.228	3.938	0.443
111.500	128.797	80.004	19.995	103.302	20.226	4.081	0.408
112.000	129.053	80.006	19.996	103.296	20.227	4.042	0.423
112.500	129.240	80.005	19.995	103.296	20.226	4.073	0.447
113.000	129.447	80.006	19.995	103.291	20.225	4.167	0.418
113.500	129.692	80.006	19.995	103.295	20.227	4.011	0.423
114.001	129.924	80.006	19.995	103.297	20.228	3.945	0.464
114.501	130.083	80.004	19.995	103.301	20.227	4.028	0.434
115.000	130.346	80.004	19.995	103.304	20.228	3.925	0.407
115.500	130.585	80.004	19.995	103.305	20.227	4.026	0.462
116.000	130.764	80.005	19.996	103.305	20.226	4.101	0.460
116.500	130.939	80.005	19.995	103.305	20.226	4.064	0.386
117.000	131.185	80.004	19.996	103.304	20.229	3.894	0.388
117.500	131.435	80.007	19.995	103.305	20.224	4.200	0.459
118.000	131.612	80.006	19.996	103.308	20.230	3.802	0.461
118.500	131.797	80.005	19.996	103.305	20.228	3.967	0.394
119.000	132.061	80.007	19.996	103.304	20.229	3.849	0.406
119.500	132.298	80.006	19.995	103.304	20.228	3.941	0.476
120.000	132.476	80.006	19.996	103.298	20.230	3.804	0.458
120.500	132.710	80.005	19.996	103.296	20.228	3.958	0.414
121.001	132.957	80.009	19.996	103.301	20.226	4.082	0.447
121.501	133.158	80.006	19.995	103.301	20.227	4.002	0.464
122.000	133.382	80.008	19.996	103.299	20.229	3.849	0.437
122.500	133.624	80.008	19.995	103.299	20.229	3.849	0.446
123.000	133.806	80.007	19.995	103.297	20.230	3.798	0.445
123.500	134.044	80.006	19.996	103.298	20.227	4.002	0.421
124.000	134.278	80.007	19.995	103.297	20.230	3.828	0.446
124.500	134.488	80.007	19.996	103.298	20.231	3.720	0.458
125.000	134.721	80.006	19.995	103.301	20.228	3.913	0.444
125.500	134.952	80.007	19.995	103.302	20.229	3.907	0.454
126.000	135.145	80.008	19.995	103.299	20.227	4.026	0.444
126.500	135.385	80.010	19.995	103.301	20.226	4.052	0.428
127.000	135.636	80.009	19.995	103.301	20.229	3.881	0.462
127.500	135.844	80.009	19.995	103.299	20.228	3.927	0.475
128.000	136.088	80.008	19.995	103.297	20.226	4.070	0.456
128.500	136.296	80.008	19.995	103.296	20.227	4.020	0.452
129.000	136.539	80.007	19.994	103.293	20.228	3.928	0.451
129.500	136.755	80.008	19.994	103.293	20.226	4.046	0.455
130.000	136.995	80.009	19.994	103.293	20.227	4.002	0.458
130.500	137.248	80.008	19.994	103.295	20.230	3.793	0.474
131.000	137.462	80.007	19.994	103.295	20.228	3.972	0.480
131.500	137.702	80.006	19.994	103.295	20.225	4.173	0.460
132.000	137.948	80.008	19.994	103.294	20.231	3.771	0.470
132.500	138.162	80.008	19.994	103.293	20.228	3.954	0.474
133.000	138.414	80.006	19.995	103.293	20.226	4.084	0.463
133.500	138.612	80.007	19.995	103.292	20.225	4.154	0.457
134.000	138.837	80.006	19.993	103.294	20.230	3.833	0.436
134.500	139.110	80.007	19.994	103.299	20.228	3.938	0.461
135.000	139.337	80.007	19.996	103.303	20.228	3.967	0.499
135.500	139.571	80.006	19.994	103.309	20.230	3.793	0.481
136.000	139.794	80.006	19.995	103.314	20.230	3.830	0.459
136.500	140.015	80.006	19.994	103.317	20.230	3.778	0.450
137.000	140.316	80.007	19.993	103.311	20.228	3.963	0.483
137.500	140.472	80.006	19.995	103.307	20.229	3.884	0.490
138.000	140.734	80.007	19.995	103.303	20.228	3.923	0.438
138.500	140.986	80.006	19.995	103.302	20.229	3.901	0.466
139.000	141.232	80.006	19.994	103.301	20.229	3.857	0.506
139.500	141.455	80.006	19.994	103.299	20.226	4.053	0.484
140.000	141.654	80.006	19.993	103.297	20.227	3.985	0.445
140.500	141.922	80.008	19.994	103.294	20.227	3.998	0.444
141.000	142.144	80.008	19.993	103.292	20.227	4.000	0.478
141.500	142.380	80.008	19.993	103.295	20.227	3.989	0.474
142.000	142.627	80.007	19.994	103.297	20.227	3.981	0.471
142.500	142.853	80.006	19.994	103.304	20.227	4.036	0.478
143.000	143.129	80.010	19.994	103.307	20.229	3.880	0.487
143.500	143.353	80.007	19.993	103.305	20.227	3.989	0.501
144.000	143.616	80.007	19.993	103.299	20.227	4.001	0.494
144.500	143.828	80.006	19.994	103.301	20.228	3.957	0.481
145.000	144.132	80.007	19.994	103.302	20.227	4.038	0.495
145.500	144.322	80.005	19.994	103.300	20.230	3.798	0.505
146.000	144.549	80.009	19.994	103.306	20.225	4.139	0.456
146.500	144.801	80.007	19.994	103.312	20.226	4.080	0.448
147.000	145.034	80.008	19.994	103.310	20.226	4.051	0.482
147.500	145.296	80.009	19.993	103.305	20.227	4.007	0.490
148.000	145.543	80.012	19.994	103.302	20.226	4.071	0.502
148.500	145.782	80.007	19.994	103.296	20.227	4.040	0.498
149.000	146.027	80.009	19.994	103.290	20.226	4.108	0.485
149.500	146.297	80.010	19.994	103.289	20.228	3.934	0.499
150.000	146.514	80.007	19.994	103.291	20.227	3.994	0.501
150.500	146.768	80.009	19.994	103.299	20.230	3.800	0.479
151.000	146.983	80.007	19.993	103.302	20.227	4.003	0.470
151.500	147.196	80.008	19.994	103.303	20.229	3.870	0.448
152.000	147.439	80.008	19.993	103.302	20.226	4.057	0.442
152.500	147.714	80.008	19.993	103.300	20.225	4.150	0.487
153.000	147.936	80.009	19.994	103.293	20.224	4.181	0.507
153.500	148.209	80.008	19.994	103.291	20.226	4.093	0.495
154.000	148.456	80.008	19.994	103.291	20.228	3.963	0.507
154.500	148.677	80.009	19.995	103.291	20.223	4.266	0.494
155.000	148.927	80.008	19.996	103.290	20.221	4.407	0.470
155.500	149.179	80.008	19.995	103.290	20.226	4.053	0.486
156.000	149.417	80.009	19.994	103.290	20.224	4.225	0.496
156.500	149.652	80.009	19.994	103.290	20.222	4.315	0.482
157.000	149.923	80.006	19.994	103.291	20.222	4.348	0.490
157.500	150.205	80.007	19.994	103.291	20.227	4.022	0.529
158.000	150.432	80.007	19.993	103.291	20.225	4.176	0.531
158.500	150.676	80.006	19.993	103.292	20.224	4.211	0.490
159.000	150.882	80.006	19.994	103.292	20.224	4.203	0.461
159.500	151.160	80.004	19.993	103.292	20.224	4.214	0.467
160.000	151.388	80.006	19.993	103.292	20.228	3.935	0.495
160.500	151.650	80.007	19.994	103.292	20.227	4.000	0.498
161.000	151.876	80.006	19.994	103.291	20.224	4.214	0.489
161.500	152.139	80.005	19.994	103.291	20.225	4.144	0.488
162.000	152.407	80.004	19.993	103.291	20.226	4.071	0.510
162.500	152.607	80.004	19.992	103.292	20.224	4.187	0.500
163.000	152.880	80.004	19.995	103.292	20.228	3.924	0.471
163.500	153.118	80.006	19.994	103.292	20.224	4.220	0.492
164.000	153.371	80.006	19.994	103.291	20.226	4.053	0.501
164.500	153.605	80.005	19.993	103.291	20.226	4.082	0.489
165.000	153.836	80.007	19.994	103.290	20.223	4.264	0.476
165.500	154.071	80.006	19.994	103.291	20.227	4.029	0.466
166.000	154.371	80.007	19.994	103.290	20.223	4.258	0.500
166.500	154.596	80.007	19.994	103.291	20.228	3.926	0.530
167.000	154.821	80.006	19.995	103.291	20.227	3.976	0.488
167.500	155.036	80.007	19.994	103.290	20.226	4.097	0.445
168.000	155.285	80.007	19.994	103.289	20.226	4.062	0.452
168.500	155.513	80.006	19.994	103.289	20.227	4.038	0.470
169.000	155.781	80.006	19.994	103.289	20.224	4.187	0.486
169.500	156.052	80.008	19.993	103.289	20.228	3.910	0.518
170.000	156.296	80.006	19.993	103.290	20.227	4.007	0.527
170.500	156.530	80.005	19.994	103.290	20.228	3.959	0.497
171.000	156.770	80.006	19.993	103.289	20.227	3.989	0.476
171.500	157.044	80.004	19.995	103.288	20.226	4.099	0.494
172.000	157.313	80.007	19.994	103.287	20.228	3.934	0.528
172.500	157.570	80.006	19.994	103.286	20.226	4.106	0.534
