Sample ID:	C:\MCC\MCC Cal\Test\Bean_Bag_Chair_Inner_Lining_MCC_30K_min_220314_R3.txt
Sample Weight (mg):	4.66
Heating Rate (C/s):	0.5
Combustor Temp (C):	900
N2 Flow Rate (cc/min):	80
O2 Flow Rate (cc/min):	20
Calibration File:	C:\MCC\MCC Cal\Coeff1 JN10440_30_210304.txt.txt
T Correction Coefficients:	0	1.024463	0
Time Shift (s):	14
*
Time (s)	Temperature (C)	N2 flow rate (cc/min)	O2 flow rate (cc/min)	Flow Rate (cc/min)	Oxygen (%)	HRR (W/g)	Heating rate (C/s)
0.000	107.745	80.004	19.997	103.673	19.792	-0.255	-0.028
0.500	107.799	80.009	19.995	103.672	19.792	-0.262	0.002
1.000	107.752	80.007	19.993	103.673	19.790	-0.109	0.019
1.500	107.767	80.003	19.995	103.674	19.791	-0.146	-0.012
2.000	107.750	80.003	19.998	103.673	19.791	-0.187	-0.017
2.500	107.739	80.006	19.994	103.673	19.790	-0.103	-0.015
3.000	107.796	80.009	19.992	103.674	19.789	-0.058	0.009
3.500	107.748	80.007	19.995	103.674	19.794	-0.414	0.027
4.000	107.759	80.004	19.996	103.671	19.793	-0.341	-0.014
4.500	107.751	80.006	19.994	103.670	19.795	-0.463	-0.017
5.000	107.718	80.009	19.994	103.671	19.792	-0.214	-0.019
5.500	107.783	80.007	19.994	103.672	19.794	-0.381	-0.005
6.000	107.763	80.008	19.994	103.672	19.794	-0.373	0.038
6.500	107.750	80.005	19.994	103.675	19.796	-0.493	0.006
7.000	107.757	80.007	19.994	103.677	19.797	-0.566	-0.019
7.500	107.796	80.007	19.993	103.677	19.794	-0.411	0.020
8.000	107.740	80.005	19.996	103.677	19.798	-0.688	0.014
8.500	107.768	80.008	19.997	103.676	19.792	-0.219	-0.023
9.000	107.790	80.006	19.995	103.675	19.795	-0.446	0.011
9.500	107.764	80.007	19.990	103.675	19.795	-0.469	0.023
10.000	107.788	80.010	19.992	103.675	19.789	-0.049	-0.003
10.500	107.788	80.006	19.994	103.674	19.795	-0.461	0.012
11.000	107.759	80.006	19.993	103.674	19.795	-0.457	-0.002
11.500	107.789	80.008	19.994	103.674	19.796	-0.489	-0.014
12.000	107.742	80.007	19.993	103.675	19.794	-0.373	-0.008
12.500	107.766	80.009	19.994	103.673	19.794	-0.379	-0.020
13.000	107.778	80.009	19.993	103.673	19.793	-0.287	0.007
13.500	107.753	80.009	19.994	103.673	19.795	-0.465	0.012
14.000	107.796	80.010	19.994	103.672	19.795	-0.471	0.003
14.500	107.788	80.009	19.991	103.673	19.796	-0.493	0.027
15.000	107.768	80.011	19.989	103.674	19.794	-0.400	0.004
15.500	107.754	80.010	19.994	103.674	19.796	-0.525	-0.031
16.000	107.787	80.012	19.993	103.677	19.791	-0.178	-0.008
16.500	107.763	80.009	19.994	103.680	19.788	0.047	0.014
17.000	107.774	80.010	19.994	103.686	19.796	-0.501	-0.002
17.500	107.788	80.011	19.996	103.692	19.793	-0.289	0.006
18.000	107.796	80.009	19.995	103.700	19.792	-0.236	0.024
18.500	107.810	80.010	19.994	103.705	19.796	-0.514	0.023
19.000	107.808	80.009	19.994	103.708	19.787	0.083	0.017
19.500	107.762	80.009	19.994	103.708	19.789	-0.043	-0.019
20.000	107.791	80.010	19.993	103.702	19.789	-0.021	-0.033
20.500	107.819	80.008	19.994	103.696	19.788	0.068	0.021
21.000	107.822	80.011	19.993	103.692	19.789	-0.066	0.044
21.500	107.821	80.010	19.993	103.691	19.793	-0.282	0.017
22.000	107.814	80.006	19.994	103.692	19.789	-0.034	-0.003
22.500	107.859	80.013	19.994	103.699	19.787	0.103	0.014
23.000	107.854	80.013	19.993	103.709	19.787	0.109	0.038
23.500	107.853	80.018	19.988	103.721	19.786	0.205	0.017
24.000	107.872	80.008	19.990	103.731	19.788	0.009	0.007
24.500	107.871	80.006	19.994	103.739	19.785	0.276	0.018
25.000	107.884	80.009	19.994	103.747	19.786	0.203	0.015
25.500	107.894	80.007	19.993	103.748	19.785	0.259	0.017
26.000	107.890	80.009	19.994	103.748	19.783	0.376	0.014
26.500	107.923	80.010	19.994	103.748	19.781	0.533	0.018
27.000	107.912	80.009	19.994	103.747	19.781	0.541	0.026
27.500	107.951	80.011	19.994	103.747	19.779	0.631	0.025
28.000	107.970	80.006	19.992	103.751	19.778	0.717	0.043
28.500	107.972	80.009	19.994	103.758	19.778	0.759	0.040
29.000	107.990	80.008	19.997	103.767	19.778	0.744	0.020
29.500	108.026	80.006	19.994	103.782	19.777	0.811	0.037
30.000	108.022	80.008	19.992	103.797	19.771	1.202	0.043
30.500	108.055	80.008	19.992	103.811	19.771	1.185	0.031
31.000	108.084	80.005	19.997	103.818	19.772	1.125	0.046
31.500	108.103	80.009	19.991	103.824	19.772	1.113	0.055
32.000	108.161	80.011	19.993	103.826	19.773	1.080	0.063
32.500	108.193	80.007	19.992	103.829	19.769	1.331	0.083
33.000	108.180	80.008	19.996	103.833	19.766	1.585	0.054
33.500	108.224	80.008	19.993	103.836	19.766	1.534	0.025
34.000	108.280	80.012	19.990	103.839	19.767	1.478	0.066
34.500	108.316	80.008	19.994	103.844	19.765	1.643	0.097
35.000	108.383	80.006	19.999	103.846	19.766	1.564	0.097
35.500	108.404	80.009	19.994	103.841	19.764	1.702	0.095
36.000	108.451	80.013	19.995	103.838	19.762	1.822	0.078
36.500	108.520	80.014	19.993	103.840	19.764	1.709	0.093
37.001	108.544	80.004	19.994	103.838	19.768	1.418	0.105
37.501	108.647	80.009	19.993	103.835	19.761	1.931	0.110
38.000	108.702	80.009	19.994	103.837	19.764	1.674	0.142
38.500	108.733	80.008	19.997	103.838	19.761	1.906	0.122
39.000	108.813	80.006	19.993	103.835	19.759	2.053	0.098
39.501	108.875	80.010	19.995	103.836	19.764	1.717	0.126
40.001	108.925	80.013	19.995	103.839	19.764	1.735	0.127
40.500	108.986	80.002	19.994	103.840	19.761	1.936	0.112
41.000	109.048	80.006	19.999	103.842	19.766	1.570	0.117
41.500	109.089	80.014	19.990	103.846	19.765	1.628	0.113
42.000	109.117	80.003	19.997	103.848	19.766	1.533	0.086
42.500	109.206	80.008	20.001	103.849	19.761	1.884	0.093
43.000	109.291	80.010	19.993	103.851	19.760	1.976	0.146
43.500	109.379	80.009	19.996	103.856	19.760	1.997	0.174
44.000	109.408	80.013	19.993	103.857	19.759	2.048	0.145
44.500	109.537	80.014	19.992	103.858	19.763	1.753	0.137
45.000	109.589	80.011	19.994	103.862	19.759	2.057	0.169
45.501	109.656	80.014	19.994	103.867	19.755	2.315	0.150
46.001	109.741	80.010	19.997	103.869	19.760	1.993	0.136
46.500	109.805	80.008	19.991	103.870	19.761	1.929	0.151
47.000	109.886	80.006	19.992	103.872	19.758	2.112	0.147
47.500	109.992	80.010	19.991	103.873	19.756	2.241	0.166
48.000	110.085	80.009	19.993	103.878	19.757	2.213	0.193
48.500	110.165	80.014	19.994	103.881	19.758	2.123	0.187
49.000	110.198	80.008	19.996	103.883	19.755	2.350	0.143
49.500	110.308	80.009	19.990	103.881	19.758	2.114	0.128
50.000	110.457	80.008	19.989	103.884	19.759	2.040	0.201
50.500	110.534	80.011	19.995	103.883	19.755	2.350	0.242
51.000	110.621	80.005	19.993	103.878	19.755	2.360	0.195
51.500	110.668	80.011	19.993	103.877	19.757	2.213	0.149
52.000	110.788	80.013	19.992	103.876	19.752	2.574	0.151
52.500	110.874	80.006	19.996	103.879	19.754	2.375	0.186
53.000	111.000	80.007	19.998	103.881	19.757	2.225	0.209
53.500	111.102	80.013	19.998	103.888	19.753	2.496	0.220
54.000	111.228	80.004	19.993	103.892	19.756	2.272	0.228
54.500	111.315	80.014	19.994	103.900	19.758	2.155	0.220
55.000	111.442	80.010	19.995	103.900	19.754	2.368	0.213
55.500	111.531	80.003	19.992	103.902	19.753	2.495	0.215
56.000	111.631	80.009	19.997	103.904	19.752	2.535	0.203
56.500	111.733	80.007	19.995	103.907	19.754	2.405	0.195
57.000	111.891	80.008	19.992	103.907	19.754	2.416	0.231
57.500	111.968	80.012	19.990	103.906	19.753	2.495	0.247
58.000	112.099	80.009	19.990	103.907	19.750	2.695	0.221
58.500	112.169	80.010	19.998	103.908	19.753	2.484	0.205
59.000	112.306	80.010	19.994	103.907	19.751	2.599	0.204
59.500	112.434	80.004	19.992	103.908	19.751	2.603	0.236
60.000	112.573	80.009	19.997	103.909	19.753	2.501	0.266
60.500	112.677	80.012	19.992	103.908	19.748	2.804	0.255
61.000	112.797	80.007	19.996	103.909	19.751	2.599	0.234
61.500	112.926	80.011	19.996	103.912	19.752	2.554	0.237
62.000	113.089	80.004	19.993	103.913	19.751	2.588	0.270
62.500	113.204	80.009	19.992	103.917	19.749	2.766	0.285
63.000	113.310	80.005	19.997	103.920	19.750	2.669	0.250
63.500	113.464	80.009	19.995	103.925	19.751	2.580	0.241
64.000	113.577	80.010	19.994	103.930	19.749	2.766	0.263
64.500	113.722	80.003	19.992	103.936	19.753	2.483	0.262
65.000	113.835	80.007	19.998	103.937	19.749	2.721	0.259
65.500	114.001	80.008	19.992	103.933	19.752	2.539	0.268
66.000	114.126	80.004	19.997	103.928	19.746	2.958	0.284
66.500	114.274	80.010	19.993	103.923	19.746	2.930	0.282
67.000	114.389	80.007	19.999	103.917	19.746	2.962	0.269
67.500	114.553	80.013	19.993	103.914	19.753	2.500	0.271
68.000	114.670	80.006	19.999	103.920	19.750	2.648	0.279
68.500	114.822	80.007	19.997	103.925	19.750	2.691	0.275
69.000	114.959	80.007	19.994	103.929	19.748	2.791	0.280
69.500	115.151	80.008	19.992	103.934	19.746	2.990	0.309
70.000	115.255	80.006	19.993	103.940	19.745	3.020	0.312
70.500	115.406	80.004	19.998	103.940	19.748	2.787	0.276
71.000	115.570	80.008	19.991	103.939	19.747	2.875	0.285
71.500	115.725	80.006	19.991	103.939	19.743	3.146	0.317
72.000	115.902	80.009	19.991	103.941	19.743	3.182	0.325
72.500	116.037	80.005	20.001	103.941	19.746	2.984	0.322
73.001	116.204	80.005	19.992	103.940	19.745	3.016	0.307
73.501	116.373	80.007	19.995	103.943	19.742	3.263	0.319
74.001	116.510	80.006	19.998	103.943	19.743	3.195	0.321
74.500	116.640	80.008	19.993	103.940	19.738	3.543	0.286
75.000	116.807	80.011	19.993	103.941	19.739	3.479	0.282
75.500	117.009	80.009	19.994	103.944	19.742	3.261	0.334
76.000	117.153	80.010	19.993	103.943	19.737	3.601	0.358
76.500	117.301	80.009	19.997	103.944	19.743	3.173	0.319
77.001	117.463	80.009	19.996	103.946	19.742	3.223	0.300
77.501	117.684	80.006	20.000	103.946	19.743	3.191	0.347
78.000	117.836	80.012	19.995	103.943	19.745	3.041	0.378
78.500	118.008	80.007	19.996	103.944	19.744	3.077	0.349
79.000	118.151	80.006	19.995	103.943	19.746	2.990	0.319
79.500	118.344	80.006	19.997	103.942	19.738	3.503	0.325
80.000	118.469	80.007	20.000	103.940	19.742	3.203	0.327
80.500	118.651	80.012	19.996	103.942	19.744	3.069	0.312
81.000	118.850	80.007	19.994	103.941	19.746	2.962	0.344
81.500	119.067	80.006	19.995	103.941	19.743	3.144	0.399
82.000	119.206	80.007	19.993	103.941	19.744	3.131	0.386
82.501	119.427	80.005	19.996	103.943	19.740	3.381	0.358
83.001	119.569	80.005	19.994	103.943	19.740	3.364	0.362
83.500	119.747	80.003	20.000	103.941	19.738	3.507	0.341
84.000	119.948	80.004	19.989	103.940	19.740	3.375	0.349
84.500	120.137	80.005	20.001	103.941	19.746	2.947	0.385
85.000	120.287	80.008	19.995	103.940	19.740	3.406	0.365
85.500	120.496	80.006	19.993	103.940	19.743	3.146	0.349
86.000	120.636	80.008	19.996	103.942	19.740	3.392	0.354
86.500	120.864	80.012	19.993	103.943	19.741	3.323	0.358
87.001	121.023	80.009	19.993	103.944	19.740	3.349	0.378
87.501	121.222	80.005	19.996	103.945	19.743	3.197	0.372
88.000	121.416	80.007	19.994	103.945	19.736	3.644	0.375
88.500	121.606	80.007	19.992	103.945	19.739	3.471	0.389
89.000	121.778	80.005	19.994	103.947	19.739	3.426	0.374
89.500	121.998	80.008	19.992	103.945	19.740	3.349	0.377
90.000	122.175	80.005	19.991	103.946	19.737	3.614	0.394
90.500	122.413	80.006	19.994	103.946	19.740	3.374	0.405
91.000	122.582	80.012	19.992	103.946	19.743	3.135	0.411
91.500	122.804	80.007	19.997	103.946	19.738	3.546	0.400
92.000	123.033	80.006	19.991	103.945	19.736	3.622	0.421
92.500	123.188	80.010	19.994	103.945	19.739	3.456	0.417
93.000	123.419	80.007	19.994	103.945	19.740	3.357	0.385
93.500	123.639	80.012	19.993	103.945	19.738	3.520	0.419
94.000	123.823	80.008	19.992	103.944	19.736	3.642	0.428
94.500	124.011	80.008	19.994	103.945	19.737	3.577	0.388
95.000	124.220	80.008	19.993	103.943	19.741	3.287	0.384
95.500	124.428	80.008	19.995	103.943	19.739	3.458	0.407
96.000	124.575	80.011	19.995	103.943	19.738	3.535	0.386
96.500	124.864	80.009	19.994	103.943	19.739	3.417	0.396
97.000	125.052	80.004	19.998	103.943	19.739	3.456	0.457
97.500	125.213	80.007	19.996	103.943	19.738	3.541	0.413
98.000	125.452	80.011	19.986	103.943	19.739	3.447	0.374
98.500	125.680	80.015	19.992	103.944	19.741	3.325	0.434
99.000	125.910	80.012	19.993	103.945	19.737	3.556	0.463
99.500	126.098	80.009	19.995	103.946	19.739	3.449	0.438
100.000	126.322	80.008	19.995	103.946	19.742	3.255	0.415
100.500	126.531	80.013	19.990	103.946	19.735	3.689	0.423
101.000	126.725	80.011	19.994	103.944	19.737	3.552	0.418
101.500	126.914	80.010	19.994	103.943	19.742	3.268	0.393
102.000	127.198	80.011	19.994	103.942	19.738	3.522	0.428
102.500	127.383	80.009	19.990	103.943	19.738	3.507	0.471
103.000	127.577	80.010	19.996	103.944	19.736	3.635	0.424
103.500	127.819	80.010	19.994	103.945	19.735	3.735	0.408
104.000	128.020	80.011	19.992	103.946	19.738	3.543	0.439
104.500	128.262	80.011	19.991	103.947	19.738	3.518	0.442
105.000	128.457	80.011	19.997	103.947	19.731	4.009	0.440
105.500	128.681	80.005	19.999	103.948	19.737	3.614	0.428
106.000	128.901	80.008	19.991	103.948	19.736	3.671	0.432
106.500	129.174	80.009	19.995	103.948	19.737	3.611	0.468
107.000	129.347	80.006	19.994	103.949	19.736	3.675	0.469
107.500	129.553	80.008	19.996	103.950	19.737	3.588	0.413
108.001	129.802	80.011	19.994	103.949	19.742	3.252	0.417
108.501	130.065	80.008	19.996	103.948	19.739	3.456	0.483
109.000	130.252	80.012	19.994	103.948	19.737	3.580	0.481
109.500	130.480	80.008	19.997	103.945	19.736	3.665	0.432
110.000	130.725	80.015	19.986	103.943	19.737	3.599	0.444
110.500	130.901	80.010	19.994	103.945	19.733	3.866	0.447
111.000	131.171	80.009	19.994	103.946	19.736	3.639	0.434
111.500	131.403	80.007	19.995	103.947	19.740	3.348	0.474
112.000	131.590	80.007	19.996	103.947	19.739	3.474	0.460
112.500	131.866	80.015	19.994	103.947	19.737	3.558	0.441
113.000	132.058	80.010	19.994	103.946	19.735	3.750	0.466
113.500	132.309	80.009	19.994	103.946	19.733	3.855	0.456
114.000	132.520	80.010	19.994	103.946	19.737	3.601	0.452
114.500	132.777	80.007	19.993	103.947	19.738	3.533	0.465
115.001	132.981	80.009	19.993	103.947	19.733	3.887	0.465
115.501	133.257	80.010	19.992	103.947	19.738	3.511	0.471
116.000	133.490	80.008	19.991	103.949	19.736	3.637	0.494
116.500	133.703	80.010	19.992	103.953	19.736	3.629	0.478
117.000	133.941	80.009	19.991	103.955	19.740	3.366	0.449
117.500	134.164	80.010	19.991	103.956	19.737	3.556	0.456
118.000	134.384	80.008	19.991	103.957	19.741	3.317	0.452
118.500	134.634	80.007	19.997	103.956	19.741	3.323	0.456
119.000	134.887	80.012	19.992	103.952	19.737	3.550	0.486
119.500	135.154	80.011	19.993	103.950	19.741	3.295	0.512
120.000	135.386	80.012	19.992	103.948	19.740	3.355	0.510
120.500	135.581	80.010	19.993	103.947	19.738	3.500	0.463
121.000	135.868	80.010	19.993	103.946	19.740	3.409	0.455
121.500	136.067	80.013	19.994	103.950	19.739	3.421	0.484
122.000	136.336	80.013	19.991	103.951	19.741	3.302	0.477
122.500	136.537	80.012	19.990	103.953	19.740	3.391	0.469
123.000	136.793	80.010	19.994	103.954	19.739	3.439	0.463
123.500	137.092	80.013	19.995	103.952	19.734	3.812	0.506
124.000	137.258	80.008	19.994	103.949	19.735	3.744	0.510
124.500	137.547	80.013	19.993	103.948	19.737	3.616	0.460
125.000	137.816	80.011	19.993	103.948	19.736	3.635	0.506
125.500	138.028	80.010	19.994	103.947	19.737	3.550	0.520
126.000	138.274	80.011	19.996	103.947	19.738	3.498	0.470
126.500	138.510	80.012	19.996	103.945	19.739	3.424	0.470
127.000	138.744	80.007	19.997	103.945	19.737	3.578	0.476
127.500	139.028	80.014	19.992	103.942	19.738	3.511	0.494
128.000	139.288	80.006	19.998	103.943	19.744	3.099	0.531
128.500	139.538	80.010	19.996	103.943	19.738	3.535	0.527
129.000	139.752	80.009	19.996	103.943	19.737	3.574	0.487
129.500	140.008	80.009	19.992	103.942	19.743	3.172	0.467
130.000	140.258	80.011	19.995	103.944	19.736	3.638	0.488
130.500	140.507	80.012	19.991	103.943	19.737	3.565	0.503
131.000	140.782	80.008	19.992	103.943	19.739	3.460	0.512
131.500	141.025	80.009	19.992	103.944	19.738	3.513	0.521
132.000	141.307	80.009	19.994	103.946	19.738	3.484	0.522
132.500	141.506	80.011	19.993	103.945	19.741	3.310	0.503
133.000	141.809	80.007	19.994	103.946	19.737	3.560	0.491
133.500	142.047	80.006	19.994	103.946	19.737	3.597	0.521
134.000	142.297	80.006	19.993	103.947	19.739	3.467	0.515
134.500	142.547	80.005	19.994	103.947	19.740	3.349	0.494
135.000	142.783	80.006	19.994	103.947	19.740	3.394	0.493
135.500	143.021	80.007	19.993	103.947	19.741	3.319	0.479
136.000	143.285	80.007	19.995	103.947	19.744	3.127	0.488
136.500	143.470	80.007	19.993	103.946	19.742	3.202	0.476
137.000	143.790	80.009	19.995	103.945	19.743	3.169	0.478
137.500	144.039	80.006	19.997	103.946	19.740	3.398	0.537
138.000	144.249	80.007	19.997	103.945	19.744	3.099	0.514
138.500	144.537	80.007	19.994	103.940	19.743	3.178	0.478
139.000	144.812	80.007	19.995	103.939	19.741	3.302	0.530
139.500	145.050	80.008	19.993	103.937	19.742	3.208	0.538
140.000	145.264	80.008	19.994	103.932	19.745	3.059	0.482
140.500	145.567	80.008	19.994	103.931	19.746	2.986	0.485
141.000	145.839	80.009	19.993	103.936	19.745	3.001	0.546
141.500	146.076	80.008	19.995	103.937	19.739	3.414	0.542
142.000	146.297	80.009	19.993	103.938	19.740	3.345	0.484
142.500	146.569	80.008	19.995	103.943	19.744	3.123	0.475
143.000	146.791	80.008	19.993	103.944	19.745	3.012	0.493
143.500	147.081	80.008	19.995	103.944	19.742	3.236	0.503
144.000	147.328	80.009	19.994	103.943	19.739	3.420	0.525
144.500	147.603	80.008	19.994	103.943	19.740	3.405	0.529
145.000	147.813	80.008	19.994	103.942	19.744	3.078	0.504
145.500	148.091	80.008	19.993	103.942	19.740	3.371	0.487
146.000	148.328	80.009	19.994	103.942	19.745	3.025	0.501
146.500	148.593	80.007	19.995	103.943	19.743	3.136	0.509
147.000	148.852	80.009	19.994	103.941	19.746	2.950	0.513
147.500	149.130	80.006	19.995	103.940	19.743	3.132	0.530
148.000	149.373	80.009	19.994	103.938	19.742	3.234	0.529
148.500	149.683	80.008	19.995	103.934	19.744	3.113	0.537
149.000	149.895	80.007	19.993	103.932	19.740	3.363	0.538
149.500	150.178	80.008	19.996	103.932	19.742	3.247	0.509
150.000	150.429	80.009	19.994	103.932	19.743	3.149	0.514
150.500	150.707	80.008	19.993	103.932	19.744	3.113	0.532
151.000	150.951	80.008	19.995	103.932	19.744	3.119	0.526
151.500	151.191	80.007	19.996	103.928	19.742	3.267	0.503
152.000	151.459	80.006	19.995	103.930	19.740	3.408	0.496
152.500	151.723	80.008	19.994	103.929	19.744	3.111	0.520
153.000	151.957	80.008	19.996	103.927	19.746	2.967	0.515
153.500	152.224	80.006	19.994	103.928	19.746	2.935	0.499
154.000	152.502	80.007	19.994	103.930	19.742	3.221	0.523
154.500	152.720	80.008	19.994	103.931	19.742	3.230	0.521
155.000	153.012	80.008	19.993	103.931	19.743	3.157	0.503
155.500	153.236	80.008	19.995	103.931	19.743	3.171	0.513
156.000	153.527	80.008	19.993	103.931	19.740	3.378	0.515
156.500	153.782	80.008	19.996	103.931	19.748	2.799	0.531
157.000	154.026	80.006	19.998	103.927	19.743	3.200	0.523
157.500	154.278	80.007	19.994	103.926	19.744	3.077	0.498
158.000	154.482	80.009	19.993	103.925	19.743	3.143	0.476
158.500	154.706	80.007	19.993	103.924	19.744	3.077	0.442
159.000	154.985	80.007	19.993	103.918	19.749	2.756	0.465
159.500	155.232	80.009	19.993	103.917	19.745	3.060	0.515
160.000	155.488	80.007	19.996	103.911	19.750	2.670	0.515
160.500	155.749	80.006	19.995	103.907	19.751	2.602	0.510
161.000	156.022	80.010	19.994	103.907	19.749	2.781	0.525
161.500	156.252	80.008	19.995	103.908	19.751	2.610	0.518
162.000	156.482	80.008	19.995	103.907	19.748	2.816	0.482
162.500	156.759	80.007	19.995	103.909	19.747	2.882	0.484
163.000	157.003	80.010	19.996	103.909	19.748	2.797	0.514
163.500	157.265	80.006	19.996	103.911	19.746	2.974	0.513
164.000	157.517	80.008	19.997	103.913	19.744	3.102	0.510
164.500	157.780	80.008	19.994	103.914	19.747	2.920	0.515
165.000	157.998	80.009	19.998	103.917	19.748	2.846	0.498
165.500	158.270	80.005	19.994	103.917	19.749	2.743	0.485
166.000	158.529	80.004	19.997	103.915	19.745	3.051	0.510
166.500	158.795	80.007	19.996	103.910	19.748	2.786	0.528
167.000	159.037	80.011	19.996	103.910	19.748	2.820	0.517
167.500	159.302	80.003	20.000	103.908	19.748	2.799	0.508
168.000	159.565	80.006	19.990	103.906	19.745	3.040	0.518
168.500	159.786	80.003	19.998	103.905	19.746	2.952	0.505
169.000	160.040	80.004	19.995	103.904	19.745	3.036	0.479
169.500	160.318	80.011	19.990	103.903	19.748	2.822	0.504
170.000	160.564	80.004	19.998	103.903	19.752	2.565	0.528
170.500	160.848	80.010	19.993	103.903	19.751	2.619	0.527
171.000	161.089	80.005	19.994	103.904	19.749	2.724	0.527
171.500	161.334	80.006	20.001	103.906	19.749	2.721	0.506
172.000	161.609	80.008	19.990	103.905	19.750	2.653	0.504
