Sample ID:	C:\MCC\MCC Cal\Test\PlasticC_MCC_30K_min_211021_R2.txt
Sample Weight (mg):	4.94
Heating Rate (C/s):	0.5
Combustor Temp (C):	900
N2 Flow Rate (cc/min):	80
O2 Flow Rate (cc/min):	20
Calibration File:	C:\MCC\MCC Cal\Coeff1 JN10440_30_210304.txt.txt
T Correction Coefficients:	0	1.024463	0
Time Shift (s):	14
*
Time (s)	Temperature (C)	N2 flow rate (cc/min)	O2 flow rate (cc/min)	Flow Rate (cc/min)	Oxygen (%)	HRR (W/g)	Heating rate (C/s)
-0.001	108.500	80.001	19.997	102.990	20.275	-0.031	-0.015
0.500	108.516	79.999	19.997	102.991	20.277	-0.195	-0.026
1.000	108.537	80.001	19.996	102.991	20.276	-0.130	0.009
1.500	108.496	80.000	19.997	102.992	20.273	0.067	0.009
2.000	108.528	79.999	19.996	102.992	20.274	0.000	-0.014
2.500	108.519	80.000	19.996	102.992	20.278	-0.229	0.007
3.000	108.505	80.000	19.995	102.991	20.276	-0.117	0.000
3.500	108.512	80.000	19.995	102.991	20.276	-0.148	-0.016
3.999	108.472	80.000	19.996	102.991	20.276	-0.101	-0.020
4.499	108.499	80.000	19.996	102.991	20.272	0.106	-0.023
4.999	108.466	80.000	19.995	102.991	20.276	-0.132	-0.009
5.499	108.474	80.000	19.995	102.990	20.273	0.054	-0.015
5.999	108.458	80.000	19.996	102.990	20.271	0.198	-0.016
6.499	108.459	80.001	19.995	102.993	20.270	0.252	-0.012
6.999	108.474	80.001	19.995	103.000	20.274	0.031	0.000
7.499	108.469	80.000	19.995	103.008	20.273	0.081	0.013
7.999	108.464	80.001	19.994	103.018	20.270	0.265	0.000
8.499	108.462	80.001	19.994	103.028	20.271	0.177	-0.009
8.999	108.471	80.001	19.995	103.037	20.271	0.220	-0.000
9.499	108.468	80.001	19.995	103.044	20.272	0.164	0.006
9.999	108.478	80.001	19.995	103.049	20.268	0.413	0.007
10.499	108.551	80.002	19.995	103.055	20.266	0.503	0.045
11.000	108.541	80.001	19.994	103.060	20.270	0.294	0.073
11.500	108.546	80.001	19.995	103.065	20.269	0.314	0.029
11.999	108.546	80.001	19.994	103.067	20.266	0.501	0.000
12.499	108.537	80.001	19.996	103.070	20.266	0.553	-0.002
12.999	108.535	80.003	19.996	103.069	20.262	0.819	-0.010
13.499	108.548	80.003	19.995	103.068	20.260	0.909	0.001
13.999	108.594	80.001	19.995	103.068	20.261	0.862	0.035
14.499	108.572	80.003	19.995	103.070	20.260	0.948	0.041
14.999	108.583	80.002	19.995	103.077	20.259	0.950	0.006
15.500	108.622	80.001	19.995	103.088	20.260	0.894	0.020
16.000	108.677	80.002	19.995	103.098	20.257	1.091	0.072
16.500	108.665	80.002	19.996	103.106	20.257	1.123	0.068
17.000	108.679	80.002	19.996	103.112	20.255	1.253	0.023
17.500	108.685	80.001	19.997	103.114	20.256	1.183	0.011
18.000	108.762	80.001	19.997	103.115	20.255	1.250	0.051
18.500	108.734	80.003	19.996	103.114	20.255	1.269	0.066
19.000	108.777	80.002	19.996	103.115	20.252	1.461	0.032
19.500	108.835	80.001	19.997	103.119	20.252	1.407	0.059
20.000	108.838	80.002	19.996	103.121	20.251	1.517	0.081
20.500	108.865	80.001	19.995	103.128	20.253	1.387	0.045
21.000	108.910	80.002	19.996	103.134	20.254	1.302	0.051
21.500	108.929	80.002	19.995	103.135	20.250	1.538	0.068
22.000	108.964	80.000	19.995	103.134	20.252	1.437	0.059
22.500	108.995	80.001	19.995	103.133	20.253	1.378	0.060
23.000	109.043	80.002	19.995	103.126	20.251	1.529	0.072
23.500	109.083	80.001	19.996	103.120	20.255	1.237	0.083
24.000	109.140	80.001	19.994	103.119	20.255	1.261	0.092
24.500	109.154	80.002	19.994	103.117	20.254	1.335	0.084
25.000	109.176	80.000	19.995	103.115	20.254	1.291	0.054
25.500	109.250	80.002	19.994	103.111	20.257	1.091	0.066
26.000	109.278	80.001	19.995	103.105	20.254	1.333	0.098
26.500	109.301	80.002	19.995	103.104	20.254	1.333	0.077
27.000	109.328	80.001	19.994	103.106	20.250	1.551	0.051
27.500	109.418	80.000	19.995	103.110	20.252	1.439	0.083
28.000	109.454	80.001	19.995	103.115	20.254	1.340	0.121
28.500	109.509	80.000	19.994	103.125	20.252	1.416	0.109
29.000	109.544	80.000	19.995	103.134	20.250	1.571	0.091
29.500	109.607	80.002	19.994	103.138	20.247	1.741	0.094
30.000	109.644	80.000	19.995	103.141	20.248	1.708	0.099
30.500	109.706	80.002	19.994	103.148	20.249	1.662	0.100
31.000	109.765	80.001	19.995	103.151	20.250	1.550	0.110
31.500	109.855	80.001	19.995	103.151	20.245	1.871	0.135
32.000	109.896	80.001	19.994	103.152	20.244	1.949	0.140
32.499	109.916	80.001	19.995	103.154	20.246	1.828	0.096
32.999	109.968	80.002	19.994	103.155	20.242	2.075	0.067
33.499	110.051	80.002	19.995	103.157	20.245	1.900	0.104
34.000	110.140	80.002	19.995	103.158	20.247	1.785	0.153
34.501	110.188	80.001	19.995	103.159	20.242	2.115	0.155
35.000	110.266	80.004	19.995	103.162	20.244	1.947	0.132
35.499	110.317	80.002	19.994	103.165	20.244	1.972	0.128
35.999	110.395	80.003	19.994	103.166	20.246	1.839	0.129
36.499	110.466	80.002	19.994	103.165	20.244	1.945	0.139
36.999	110.495	80.003	19.994	103.165	20.240	2.198	0.124
37.499	110.599	80.003	19.995	103.163	20.238	2.384	0.116
37.999	110.698	80.004	19.995	103.163	20.240	2.247	0.168
38.499	110.770	80.002	19.995	103.166	20.240	2.242	0.187
38.999	110.850	80.003	19.995	103.173	20.241	2.186	0.162
39.499	110.907	80.004	19.995	103.179	20.238	2.319	0.144
39.999	110.988	80.004	19.995	103.183	20.237	2.390	0.137
40.499	111.066	80.003	19.996	103.185	20.238	2.326	0.149
40.999	111.123	80.004	19.995	103.186	20.238	2.323	0.147
41.500	111.251	80.004	19.996	103.186	20.238	2.344	0.160
42.001	111.336	80.003	19.995	103.186	20.236	2.483	0.199
42.500	111.401	80.003	19.995	103.189	20.237	2.437	0.181
42.999	111.465	80.005	19.994	103.196	20.234	2.617	0.140
43.499	111.575	80.003	19.995	103.200	20.233	2.657	0.151
43.999	111.650	80.003	19.995	103.207	20.234	2.639	0.179
44.499	111.748	80.002	19.994	103.212	20.232	2.763	0.179
44.999	111.854	80.003	19.995	103.213	20.234	2.621	0.189
45.499	111.942	80.002	19.995	103.214	20.231	2.807	0.199
45.999	112.023	80.003	19.996	103.213	20.233	2.655	0.181
46.499	112.101	80.002	19.996	103.214	20.231	2.778	0.164
46.999	112.235	80.001	19.995	103.215	20.233	2.695	0.185
47.499	112.333	80.001	19.995	103.218	20.231	2.810	0.222
47.999	112.443	80.001	19.996	103.219	20.231	2.809	0.220
48.499	112.540	80.000	19.996	103.224	20.228	2.994	0.208
48.999	112.656	80.001	19.996	103.224	20.231	2.839	0.210
49.500	112.767	80.001	19.996	103.225	20.232	2.774	0.220
50.001	112.857	80.001	19.995	103.225	20.231	2.818	0.214
50.501	112.969	80.002	19.997	103.226	20.230	2.892	0.202
51.000	113.111	80.001	19.995	103.226	20.228	3.006	0.228
51.500	113.199	80.002	19.997	103.225	20.231	2.793	0.242
52.000	113.302	80.001	19.997	103.225	20.228	2.986	0.211
52.499	113.421	80.000	19.996	103.226	20.229	2.959	0.207
52.999	113.562	80.000	19.997	103.229	20.227	3.053	0.241
53.499	113.662	80.002	19.996	103.230	20.227	3.100	0.251
53.999	113.799	80.001	19.997	103.231	20.227	3.048	0.239
54.499	113.931	80.000	19.996	103.233	20.225	3.174	0.253
54.999	114.056	80.001	19.996	103.232	20.225	3.178	0.263
55.499	114.202	79.999	19.996	103.230	20.226	3.138	0.264
55.999	114.305	80.000	19.996	103.230	20.225	3.210	0.260
56.499	114.422	80.000	19.996	103.230	20.225	3.203	0.234
56.999	114.562	80.000	19.996	103.229	20.223	3.329	0.238
57.499	114.685	80.001	19.995	103.228	20.224	3.235	0.260
57.999	114.834	80.001	19.995	103.233	20.224	3.268	0.267
58.500	114.941	80.001	19.996	103.235	20.225	3.228	0.264
59.000	115.096	80.001	19.996	103.236	20.225	3.168	0.259
59.499	115.237	79.999	19.996	103.237	20.226	3.131	0.279
59.999	115.381	80.001	19.997	103.241	20.222	3.400	0.291
60.500	115.527	80.000	19.997	103.239	20.224	3.235	0.288
61.001	115.676	80.000	19.996	103.245	20.224	3.266	0.292
61.500	115.815	80.000	19.995	103.245	20.219	3.582	0.291
61.999	115.932	80.000	19.995	103.248	20.224	3.269	0.272
62.499	116.098	80.001	19.996	103.251	20.221	3.471	0.269
62.999	116.214	80.002	19.997	103.254	20.223	3.361	0.282
63.499	116.356	80.000	19.996	103.254	20.224	3.291	0.270
63.999	116.515	80.002	19.996	103.260	20.222	3.387	0.280
64.499	116.703	80.001	19.995	103.264	20.221	3.470	0.324
64.999	116.867	80.001	19.995	103.265	20.222	3.389	0.350
65.499	116.999	80.001	19.997	103.265	20.223	3.344	0.324
65.999	117.171	80.001	19.997	103.265	20.221	3.473	0.300
66.499	117.287	80.001	19.996	103.262	20.220	3.533	0.296
66.999	117.484	80.001	19.996	103.261	20.224	3.262	0.301
67.499	117.632	80.001	19.995	103.261	20.219	3.589	0.329
67.999	117.820	80.001	19.997	103.260	20.220	3.497	0.340
68.499	117.944	80.001	19.996	103.261	20.220	3.521	0.324
68.999	118.126	80.001	19.996	103.265	20.224	3.295	0.309
69.499	118.295	80.001	19.996	103.264	20.220	3.504	0.329
69.999	118.457	80.001	19.996	103.262	20.216	3.811	0.341
70.500	118.624	80.000	19.997	103.262	20.219	3.624	0.329
71.000	118.820	80.000	19.996	103.261	20.220	3.515	0.346
71.499	118.965	80.000	19.995	103.260	20.220	3.532	0.352
71.999	119.146	80.000	19.996	103.261	20.219	3.613	0.334
72.499	119.305	79.999	19.995	103.260	20.219	3.580	0.334
72.999	119.484	79.999	19.996	103.253	20.221	3.450	0.339
73.499	119.651	80.001	19.997	103.252	20.219	3.596	0.342
73.999	119.868	80.000	19.996	103.252	20.222	3.367	0.365
74.499	120.053	79.999	19.996	103.254	20.219	3.622	0.393
74.999	120.173	80.000	19.996	103.257	20.221	3.492	0.354
75.500	120.339	79.999	19.996	103.265	20.222	3.414	0.296
76.001	120.558	79.999	19.996	103.267	20.219	3.620	0.336
76.500	120.731	80.000	19.996	103.264	20.221	3.456	0.388
76.999	120.921	79.998	19.996	103.259	20.221	3.470	0.377
77.499	121.160	79.999	19.996	103.259	20.220	3.499	0.396
77.999	121.329	79.999	19.996	103.259	20.219	3.596	0.418
78.499	121.484	79.999	19.996	103.258	20.222	3.425	0.366
78.999	121.686	79.998	19.997	103.261	20.223	3.356	0.341
79.499	121.877	79.999	19.995	103.266	20.222	3.396	0.375
79.999	122.087	79.999	19.997	103.267	20.220	3.537	0.397
80.500	122.248	79.998	19.997	103.267	20.219	3.564	0.386
81.000	122.480	79.999	19.996	103.268	20.224	3.262	0.382
81.499	122.649	79.999	19.997	103.268	20.223	3.360	0.397
82.000	122.851	79.998	19.996	103.268	20.220	3.522	0.385
82.500	123.046	80.000	19.996	103.267	20.220	3.519	0.384
82.999	123.252	80.000	19.996	103.265	20.221	3.454	0.399
83.499	123.436	79.998	19.996	103.261	20.221	3.466	0.396
83.999	123.635	79.999	19.997	103.260	20.218	3.651	0.386
84.500	123.842	79.999	19.997	103.259	20.220	3.501	0.394
85.000	124.049	80.000	19.997	103.260	20.224	3.241	0.410
85.499	124.224	79.999	19.996	103.261	20.222	3.376	0.398
86.000	124.406	80.000	19.996	103.265	20.222	3.405	0.370
86.501	124.662	80.001	19.996	103.265	20.220	3.542	0.397
87.000	124.857	80.000	19.996	103.265	20.221	3.430	0.445
87.499	125.035	79.999	19.996	103.266	20.222	3.427	0.412
87.999	125.257	80.001	19.997	103.265	20.223	3.358	0.387
88.499	125.494	80.000	19.997	103.265	20.223	3.313	0.429
88.999	125.680	80.001	19.996	103.265	20.222	3.367	0.441
89.499	125.899	80.001	19.995	103.265	20.224	3.252	0.414
89.999	126.087	80.000	19.996	103.265	20.224	3.284	0.406
90.499	126.325	80.001	19.996	103.266	20.225	3.196	0.416
90.999	126.542	80.002	19.996	103.267	20.222	3.407	0.440
91.499	126.744	80.002	19.995	103.266	20.227	3.087	0.437
91.999	126.971	80.001	19.996	103.265	20.221	3.461	0.424
92.499	127.169	80.002	19.996	103.263	20.224	3.273	0.427
93.000	127.373	80.002	19.994	103.263	20.223	3.308	0.414
93.500	127.571	80.002	19.994	103.263	20.223	3.338	0.403
93.999	127.795	80.001	19.994	103.264	20.224	3.279	0.412
94.499	128.053	80.002	19.995	103.266	20.224	3.248	0.452
94.999	128.233	80.002	19.993	103.269	20.225	3.197	0.460
95.499	128.452	80.002	19.994	103.269	20.222	3.401	0.418
95.999	128.680	80.003	19.995	103.268	20.225	3.199	0.423
96.499	128.870	80.002	19.994	103.268	20.222	3.396	0.432
96.999	129.114	80.002	19.995	103.268	20.225	3.203	0.426
97.499	129.329	80.002	19.994	103.268	20.222	3.407	0.446
97.999	129.526	80.003	19.995	103.268	20.219	3.600	0.436
98.499	129.776	80.001	19.996	103.269	20.222	3.407	0.429
98.999	130.017	80.002	19.995	103.269	20.221	3.477	0.469
99.499	130.231	80.003	19.995	103.269	20.222	3.369	0.473
99.999	130.424	80.003	19.995	103.269	20.218	3.685	0.431
100.499	130.655	80.003	19.994	103.269	20.221	3.483	0.416
100.999	130.889	80.002	19.995	103.269	20.219	3.584	0.444
101.499	131.096	80.002	19.995	103.268	20.221	3.490	0.453
101.999	131.330	80.002	19.994	103.268	20.219	3.613	0.441
102.499	131.551	80.003	19.994	103.267	20.218	3.656	0.448
102.999	131.766	80.003	19.994	103.267	20.217	3.712	0.445
103.499	131.989	80.002	19.996	103.267	20.216	3.761	0.437
103.999	132.235	80.002	19.996	103.267	20.220	3.542	0.453
104.499	132.461	80.002	19.996	103.267	20.220	3.531	0.470
104.999	132.697	80.002	19.996	103.267	20.220	3.506	0.467
105.499	132.921	80.003	19.994	103.266	20.219	3.569	0.462
105.999	133.170	80.001	19.994	103.266	20.219	3.571	0.467
106.499	133.385	80.003	19.995	103.265	20.219	3.562	0.468
106.999	133.623	80.002	19.996	103.265	20.217	3.703	0.459
107.499	133.876	80.002	19.994	103.264	20.217	3.734	0.472
107.999	134.080	80.003	19.995	103.265	20.217	3.714	0.474
108.499	134.302	80.001	19.995	103.265	20.222	3.387	0.441
108.999	134.537	80.002	19.995	103.265	20.220	3.508	0.441
109.499	134.807	80.002	19.995	103.265	20.221	3.484	0.481
109.999	135.019	80.001	19.995	103.266	20.219	3.566	0.494
110.499	135.264	80.003	19.995	103.266	20.224	3.259	0.470
110.999	135.487	80.003	19.995	103.266	20.222	3.371	0.463
111.499	135.714	80.003	19.995	103.266	20.223	3.356	0.459
111.999	135.940	80.002	19.996	103.265	20.219	3.560	0.452
112.499	136.162	80.001	19.994	103.265	20.221	3.488	0.451
112.999	136.399	80.003	19.995	103.265	20.220	3.522	0.453
113.499	136.645	80.003	19.995	103.265	20.221	3.463	0.471
113.999	136.894	80.002	19.995	103.265	20.221	3.488	0.489
114.500	137.151	80.002	19.995	103.264	20.217	3.710	0.501
115.000	137.399	80.002	19.995	103.264	20.219	3.562	0.505
115.499	137.598	80.002	19.995	103.263	20.220	3.544	0.476
115.999	137.830	80.004	19.994	103.263	20.219	3.623	0.439
116.499	138.084	80.003	19.995	103.264	20.218	3.634	0.458
116.999	138.315	80.005	19.996	103.264	20.221	3.488	0.486
117.499	138.552	80.004	19.995	103.264	20.219	3.578	0.477
117.999	138.801	80.004	19.995	103.265	20.221	3.450	0.477
118.499	139.079	80.004	19.994	103.263	20.221	3.490	0.507
118.999	139.285	80.003	19.995	103.262	20.222	3.383	0.505
119.499	139.567	80.003	19.994	103.262	20.217	3.714	0.486
119.999	139.782	80.004	19.993	103.259	20.220	3.557	0.492
120.500	140.046	80.005	19.994	103.259	20.222	3.423	0.488
121.000	140.257	80.005	19.995	103.260	20.221	3.437	0.478
121.500	140.496	80.005	19.994	103.259	20.223	3.338	0.463
122.000	140.766	80.004	19.994	103.259	20.222	3.389	0.479
122.499	141.003	80.004	19.995	103.262	20.222	3.376	0.508
122.999	141.274	80.003	19.995	103.261	20.222	3.426	0.507
123.499	141.537	80.004	19.995	103.262	20.221	3.441	0.521
123.999	141.742	80.004	19.995	103.263	20.221	3.493	0.501
124.499	141.999	80.003	19.994	103.263	20.222	3.388	0.465
124.999	142.250	80.004	19.995	103.261	20.219	3.569	0.485
125.500	142.495	80.004	19.994	103.262	20.224	3.287	0.502
126.000	142.746	80.003	19.995	103.262	20.221	3.473	0.496
126.500	142.989	80.004	19.995	103.262	20.222	3.378	0.495
127.000	143.229	80.003	19.994	103.262	20.225	3.201	0.488
127.499	143.483	80.003	19.994	103.261	20.221	3.457	0.489
128.000	143.736	80.004	19.995	103.258	20.222	3.412	0.501
128.500	143.983	80.001	19.995	103.257	20.223	3.338	0.503
129.000	144.218	80.001	19.996	103.256	20.223	3.345	0.491
129.500	144.459	80.002	19.994	103.256	20.223	3.341	0.479
130.000	144.763	80.002	19.995	103.257	20.219	3.572	0.510
130.500	145.000	80.003	19.994	103.260	20.221	3.443	0.543
131.000	145.249	80.001	19.995	103.261	20.223	3.356	0.514
131.500	145.480	80.002	19.995	103.261	20.224	3.296	0.483
132.000	145.704	80.003	19.995	103.262	20.225	3.228	0.467
132.500	146.002	80.002	19.995	103.264	20.223	3.325	0.488
133.000	146.226	80.001	19.994	103.264	20.227	3.101	0.522
133.500	146.509	80.001	19.996	103.261	20.223	3.321	0.514
134.000	146.756	80.001	19.995	103.256	20.225	3.218	0.518
134.500	146.994	80.001	19.995	103.254	20.223	3.321	0.508
135.000	147.217	80.001	19.994	103.252	20.222	3.383	0.473
135.500	147.524	80.002	19.995	103.253	20.226	3.152	0.496
136.000	147.757	80.001	19.995	103.252	20.227	3.070	0.535
136.500	148.023	80.000	19.995	103.253	20.223	3.338	0.519
137.000	148.236	80.000	19.995	103.256	20.222	3.412	0.489
137.500	148.469	80.000	19.996	103.255	20.224	3.290	0.462
138.000	148.778	80.000	19.995	103.250	20.223	3.312	0.494
138.500	148.985	80.001	19.997	103.250	20.223	3.341	0.529
139.000	149.261	80.001	19.995	103.249	20.222	3.365	0.499
139.500	149.534	80.000	19.994	103.245	20.222	3.366	0.516
140.000	149.765	80.002	19.995	103.245	20.220	3.538	0.526
140.500	150.045	80.001	19.995	103.249	20.222	3.415	0.508
141.000	150.320	80.000	19.996	103.248	20.221	3.440	0.533
141.500	150.566	80.001	19.995	103.251	20.222	3.415	0.538
142.000	150.811	80.000	19.996	103.248	20.224	3.274	0.506
142.500	151.057	80.000	19.995	103.245	20.222	3.377	0.491
143.000	151.319	80.000	19.995	103.246	20.222	3.413	0.499
143.500	151.559	80.002	19.997	103.246	20.223	3.339	0.505
144.000	151.811	80.001	19.996	103.242	20.222	3.364	0.497
144.500	152.033	80.000	19.997	103.242	20.223	3.334	0.483
145.000	152.299	80.002	19.996	103.243	20.217	3.709	0.482
145.500	152.564	80.001	19.994	103.241	20.223	3.325	0.510
146.000	152.855	80.002	19.996	103.243	20.221	3.462	0.543
146.500	153.073	80.000	19.998	103.244	20.221	3.473	0.532
147.000	153.357	80.002	19.995	103.245	20.223	3.325	0.505
147.500	153.617	80.002	19.995	103.243	20.222	3.372	0.523
148.000	153.854	80.000	19.996	103.241	20.223	3.325	0.521
148.500	154.048	80.000	19.995	103.238	20.222	3.413	0.464
149.000	154.331	80.002	19.996	103.242	20.221	3.444	0.454
149.500	154.566	80.000	19.996	103.245	20.222	3.419	0.498
150.000	154.852	80.001	19.995	103.244	20.222	3.390	0.519
150.500	155.074	80.000	19.995	103.241	20.224	3.265	0.514
151.000	155.320	80.001	19.996	103.240	20.226	3.153	0.488
151.500	155.574	80.001	19.995	103.234	20.224	3.240	0.484
152.000	155.805	79.999	19.995	103.230	20.222	3.370	0.493
152.500	156.081	80.001	19.996	103.230	20.224	3.296	0.496
153.000	156.300	80.002	19.995	103.231	20.222	3.397	0.501
153.500	156.565	79.999	19.995	103.233	20.223	3.335	0.489
154.000	156.820	80.000	19.995	103.234	20.221	3.433	0.502
154.500	157.041	80.000	19.995	103.237	20.223	3.353	0.498
155.000	157.332	80.000	19.995	103.237	20.223	3.352	0.494
155.500	157.570	79.999	19.995	103.235	20.221	3.451	0.520
156.000	157.839	80.000	19.996	103.234	20.220	3.545	0.518
156.500	158.129	80.000	19.996	103.234	20.223	3.319	0.534
157.000	158.302	80.000	19.995	103.233	20.223	3.357	0.511
157.500	158.577	80.000	19.995	103.235	20.225	3.222	0.455
158.000	158.876	80.000	19.995	103.236	20.222	3.373	0.511
158.500	159.095	80.000	19.996	103.235	20.227	3.079	0.546
159.000	159.337	80.000	19.996	103.234	20.222	3.422	0.489
159.500	159.588	80.000	19.996	103.234	20.226	3.149	0.477
160.000	159.835	80.000	19.996	103.233	20.223	3.352	0.496
160.500	160.076	80.000	19.996	103.235	20.225	3.218	0.493
161.000	160.311	79.998	19.996	103.237	20.223	3.303	0.482
161.500	160.604	79.999	19.996	103.239	20.224	3.232	0.502
162.000	160.866	80.001	19.995	103.238	20.225	3.214	0.541
162.500	161.086	79.998	19.994	103.236	20.224	3.249	0.519
163.000	161.342	79.998	19.995	103.235	20.223	3.308	0.479
163.500	161.597	79.999	19.996	103.233	20.223	3.348	0.493
164.000	161.844	80.000	19.995	103.231	20.224	3.277	0.507
164.500	162.121	80.001	19.996	103.231	20.226	3.140	0.513
165.000	162.371	79.999	19.996	103.230	20.223	3.319	0.525
165.500	162.632	80.000	19.996	103.230	20.224	3.252	0.519
166.000	162.859	80.001	19.996	103.230	20.222	3.409	0.499
166.500	163.116	80.000	19.996	103.229	20.226	3.164	0.486
167.000	163.391	80.001	19.996	103.228	20.223	3.337	0.508
167.500	163.626	80.000	19.995	103.227	20.222	3.368	0.521
168.000	163.869	79.999	19.995	103.226	20.224	3.234	0.494
168.500	164.135	80.000	19.994	103.226	20.225	3.230	0.494
169.000	164.384	79.999	19.997	103.226	20.225	3.207	0.512
169.500	164.626	80.001	19.997	103.226	20.224	3.279	0.503
170.000	164.839	79.999	19.997	103.227	20.224	3.243	0.473
170.500	165.188	80.001	19.997	103.228	20.224	3.241	0.508
171.000	165.375	80.001	19.996	103.228	20.223	3.315	0.549
171.500	165.653	80.000	19.996	103.228	20.223	3.353	0.501
172.000	165.951	80.001	19.996	103.227	20.223	3.315	0.521
172.500	166.179	80.000	19.998	103.225	20.226	3.155	0.551
