Sample ID:	C:\MCC\MCC Cal\Test\LDPE_MCC_30K_min_210922_R2.txt
Sample Weight (mg):	4.45
Heating Rate (C/s):	0.5
Combustor Temp (C):	900
N2 Flow Rate (cc/min):	80
O2 Flow Rate (cc/min):	20
Calibration File:	C:\MCC\MCC Cal\Coeff1 JN10440_30_210304.txt.txt
T Correction Coefficients:	0	1.024463	0
Time Shift (s):	14
*
Time (s)	Temperature (C)	N2 flow rate (cc/min)	O2 flow rate (cc/min)	Flow Rate (cc/min)	Oxygen (%)	HRR (W/g)	Heating rate (C/s)
0.000	108.703	80.005	19.996	100.367	20.048	0.233	0.013
0.500	108.683	80.006	19.998	100.365	20.048	0.260	0.003
1.000	108.700	80.006	19.995	100.362	20.049	0.212	-0.008
1.500	108.709	80.005	19.996	100.361	20.047	0.346	0.011
2.000	108.730	80.006	19.996	100.364	20.048	0.248	0.028
2.500	108.702	80.007	19.998	100.368	20.051	0.076	0.012
3.000	108.719	80.006	19.996	100.370	20.052	-0.040	-0.009
3.500	108.704	80.007	19.997	100.374	20.048	0.231	-0.005
4.000	108.714	80.006	19.996	100.376	20.052	-0.057	-0.002
4.500	108.664	80.006	19.997	100.377	20.048	0.243	-0.022
5.000	108.688	80.007	19.996	100.375	20.050	0.122	-0.033
5.500	108.659	80.007	19.996	100.373	20.050	0.126	-0.016
6.000	108.656	80.006	19.994	100.373	20.050	0.097	-0.018
6.500	108.693	80.006	19.996	100.373	20.050	0.096	0.001
7.000	108.706	80.007	19.994	100.373	20.049	0.214	0.042
7.500	108.674	80.007	19.995	100.375	20.050	0.090	0.016
8.000	108.650	80.008	19.996	100.378	20.050	0.088	-0.037
8.500	108.678	80.006	19.996	100.378	20.051	0.073	-0.026
9.000	108.691	80.005	19.996	100.378	20.053	-0.092	0.023
9.500	108.676	80.007	19.995	100.377	20.050	0.103	0.019
10.000	108.661	80.004	19.995	100.377	20.050	0.117	-0.016
10.500	108.666	80.004	19.996	100.375	20.052	-0.033	-0.020
11.000	108.665	80.004	19.995	100.375	20.050	0.130	-0.003
11.500	108.649	80.005	19.997	100.377	20.046	0.427	-0.006
12.001	108.650	80.005	19.994	100.378	20.051	0.078	-0.016
12.501	108.686	80.005	19.996	100.381	20.049	0.210	0.011
13.000	108.662	80.006	19.996	100.390	20.049	0.151	0.024
13.500	108.684	80.007	19.996	100.397	20.050	0.088	0.005
14.000	108.658	80.007	19.997	100.404	20.046	0.377	-0.003
14.500	108.679	80.008	19.996	100.412	20.045	0.465	-0.004
15.000	108.672	80.008	19.998	100.421	20.043	0.578	0.004
15.500	108.659	80.005	19.997	100.423	20.042	0.696	-0.003
16.000	108.687	80.005	19.996	100.422	20.043	0.620	-0.003
16.500	108.709	80.006	19.995	100.423	20.044	0.551	0.032
17.000	108.694	80.006	19.996	100.421	20.043	0.622	0.028
17.500	108.714	80.005	19.996	100.423	20.040	0.831	0.006
18.000	108.739	80.006	19.995	100.430	20.039	0.863	0.025
18.500	108.734	80.005	19.996	100.440	20.038	0.943	0.033
19.000	108.750	80.005	19.996	100.447	20.036	1.077	0.016
19.500	108.775	80.005	19.996	100.467	20.036	1.123	0.026
20.000	108.778	80.009	19.997	100.478	20.032	1.359	0.035
20.500	108.803	80.007	19.996	100.484	20.032	1.368	0.028
21.000	108.844	80.006	19.996	100.485	20.031	1.427	0.047
21.500	108.886	80.008	19.996	100.492	20.030	1.540	0.074
22.000	108.913	80.008	19.997	100.488	20.031	1.443	0.076
22.500	108.918	80.007	19.997	100.486	20.029	1.561	0.051
23.000	108.994	80.005	19.997	100.490	20.028	1.646	0.056
23.500	108.989	80.010	19.996	100.502	20.026	1.799	0.076
24.000	109.034	80.008	19.997	100.505	20.028	1.655	0.055
24.500	109.075	80.004	19.997	100.505	20.029	1.560	0.063
25.000	109.089	80.006	19.997	100.509	20.029	1.600	0.071
25.500	109.131	80.007	19.996	100.514	20.027	1.701	0.056
26.000	109.178	80.006	19.996	100.514	20.024	1.942	0.073
26.500	109.229	80.006	19.997	100.520	20.026	1.784	0.094
27.000	109.272	80.007	19.996	100.527	20.025	1.849	0.096
27.500	109.288	80.007	19.996	100.529	20.026	1.833	0.076
28.000	109.350	80.007	19.995	100.528	20.024	1.937	0.068
28.500	109.371	80.006	19.996	100.528	20.026	1.786	0.080
29.000	109.440	80.007	19.997	100.527	20.025	1.898	0.087
29.500	109.489	80.009	19.995	100.526	20.023	2.038	0.104
30.000	109.567	80.007	19.998	100.525	20.025	1.868	0.122
30.500	109.620	80.005	19.994	100.525	20.024	1.964	0.129
31.000	109.646	80.006	19.997	100.526	20.023	1.992	0.105
31.500	109.721	80.007	19.998	100.525	20.024	1.935	0.090
32.000	109.743	80.007	19.997	100.524	20.026	1.801	0.099
32.500	109.851	80.006	19.997	100.525	20.022	2.084	0.114
33.000	109.861	80.006	19.997	100.523	20.024	1.965	0.125
33.500	109.973	80.007	19.997	100.522	20.025	1.851	0.120
34.000	109.969	80.006	19.996	100.523	20.022	2.063	0.115
34.500	110.050	80.006	19.996	100.525	20.022	2.109	0.092
35.000	110.112	80.006	19.997	100.527	20.026	1.820	0.110
35.500	110.195	80.005	19.997	100.531	20.022	2.105	0.144
36.000	110.237	80.006	19.997	100.533	20.023	1.987	0.134
36.500	110.306	80.006	19.998	100.535	20.021	2.170	0.117
37.000	110.432	80.006	19.997	100.535	20.019	2.276	0.153
37.500	110.446	80.005	19.996	100.536	20.020	2.259	0.168
38.000	110.520	80.005	19.996	100.535	20.023	2.021	0.114
38.500	110.580	80.004	19.995	100.535	20.019	2.276	0.111
39.000	110.677	80.004	19.997	100.536	20.020	2.199	0.145
39.500	110.769	80.005	19.997	100.537	20.018	2.374	0.173
40.000	110.823	80.004	19.996	100.538	20.021	2.188	0.168
40.500	110.924	80.002	19.996	100.538	20.020	2.213	0.151
41.000	110.991	80.003	19.997	100.539	20.020	2.201	0.161
41.500	111.127	80.003	19.997	100.538	20.021	2.186	0.185
42.000	111.146	80.002	19.997	100.537	20.021	2.179	0.179
42.500	111.261	80.004	19.997	100.537	20.020	2.198	0.144
43.000	111.356	80.004	19.997	100.537	20.018	2.397	0.172
43.500	111.418	80.005	19.998	100.536	20.020	2.209	0.184
44.000	111.542	80.004	19.998	100.536	20.019	2.294	0.172
44.501	111.611	80.004	19.997	100.537	20.018	2.374	0.189
45.001	111.687	80.004	19.996	100.536	20.016	2.498	0.169
45.501	111.783	80.005	19.998	100.537	20.019	2.311	0.158
46.000	111.876	80.004	19.997	100.539	20.020	2.204	0.180
46.500	111.972	80.005	19.996	100.539	20.020	2.261	0.189
47.000	112.073	80.004	19.997	100.539	20.017	2.437	0.193
47.500	112.159	80.003	19.998	100.541	20.016	2.479	0.192
48.000	112.276	80.003	19.997	100.547	20.019	2.326	0.195
48.501	112.397	80.005	19.996	100.550	20.016	2.540	0.220
49.001	112.463	80.003	19.998	100.555	20.021	2.152	0.212
49.500	112.568	80.003	19.996	100.560	20.018	2.347	0.179
50.000	112.656	80.005	19.997	100.563	20.016	2.508	0.182
50.501	112.763	80.005	19.997	100.562	20.017	2.409	0.194
51.001	112.893	80.002	19.997	100.564	20.017	2.414	0.216
51.501	112.991	80.003	19.998	100.565	20.014	2.619	0.233
52.001	113.100	80.005	19.997	100.566	20.016	2.491	0.218
52.500	113.209	80.002	19.997	100.568	20.017	2.412	0.212
53.001	113.282	80.001	19.996	100.570	20.013	2.694	0.200
53.501	113.405	80.002	19.997	100.571	20.015	2.613	0.189
54.000	113.530	80.004	19.997	100.573	20.017	2.439	0.222
54.500	113.670	80.004	19.997	100.574	20.017	2.422	0.257
55.000	113.850	80.002	19.996	100.573	20.016	2.528	0.293
55.500	113.918	80.003	19.996	100.574	20.015	2.560	0.284
56.000	114.071	80.005	19.997	100.574	20.014	2.645	0.234
56.500	114.169	80.003	19.997	100.574	20.013	2.691	0.236
57.001	114.271	80.005	19.997	100.575	20.015	2.597	0.226
57.501	114.409	80.004	19.998	100.575	20.016	2.485	0.220
58.000	114.534	80.004	19.997	100.575	20.017	2.414	0.251
58.500	114.640	80.004	19.998	100.574	20.015	2.550	0.247
59.000	114.750	80.003	19.997	100.574	20.016	2.493	0.224
59.500	114.895	80.006	19.998	100.574	20.015	2.596	0.235
60.000	115.032	80.004	19.998	100.574	20.013	2.734	0.268
60.500	115.149	80.004	19.998	100.575	20.014	2.652	0.268
61.000	115.272	80.006	19.998	100.579	20.015	2.564	0.248
61.501	115.399	80.009	19.997	100.580	20.012	2.763	0.245
62.001	115.542	80.007	19.999	100.580	20.011	2.840	0.259
62.500	115.663	80.008	19.997	100.579	20.014	2.658	0.267
63.000	115.837	80.005	19.997	100.578	20.011	2.859	0.280
63.500	115.953	80.006	19.997	100.576	20.011	2.861	0.293
64.001	116.092	80.004	19.997	100.579	20.009	3.037	0.272
64.501	116.247	80.002	19.999	100.582	20.012	2.760	0.274
65.000	116.418	80.003	19.998	100.588	20.011	2.896	0.310
65.500	116.514	80.005	19.996	100.596	20.008	3.101	0.297
66.000	116.646	80.004	19.996	100.601	20.006	3.189	0.248
66.500	116.803	80.003	19.998	100.605	20.006	3.240	0.259
67.000	116.946	80.003	19.998	100.605	20.008	3.085	0.294
67.500	117.086	80.004	19.996	100.601	20.010	2.917	0.291
68.000	117.251	80.002	19.997	100.594	20.011	2.886	0.294
68.500	117.390	80.004	19.998	100.587	20.009	3.007	0.305
69.000	117.568	80.003	19.998	100.582	20.010	2.968	0.310
69.500	117.702	80.005	19.997	100.582	20.009	3.041	0.314
70.000	117.847	80.004	19.997	100.582	20.009	2.991	0.295
70.500	118.009	80.003	19.996	100.581	20.010	2.901	0.293
71.000	118.174	80.002	19.996	100.585	20.012	2.829	0.317
71.500	118.355	80.003	19.997	100.585	20.011	2.838	0.337
72.000	118.500	80.005	19.997	100.586	20.010	2.919	0.336
72.500	118.638	80.002	19.997	100.591	20.011	2.894	0.304
73.000	118.820	80.003	19.996	100.596	20.011	2.898	0.302
73.500	118.953	80.002	19.997	100.599	20.009	2.982	0.318
74.000	119.132	80.004	19.997	100.603	20.010	2.911	0.313
74.500	119.275	80.002	19.997	100.605	20.010	2.919	0.317
75.000	119.443	80.003	19.997	100.607	20.011	2.894	0.316
75.500	119.599	80.006	19.998	100.610	20.009	3.030	0.318
76.001	119.753	80.011	19.998	100.610	20.008	3.055	0.317
76.501	119.928	80.005	19.997	100.612	20.005	3.265	0.319
77.000	120.091	80.003	19.997	100.611	20.008	3.051	0.334
77.500	120.270	80.004	19.996	100.612	20.010	2.921	0.340
78.000	120.410	80.003	19.996	100.612	20.009	2.999	0.331
78.500	120.562	80.005	19.995	100.611	20.008	3.045	0.306
79.000	120.756	80.007	19.997	100.611	20.012	2.808	0.319
79.500	120.919	80.005	19.996	100.610	20.010	2.953	0.352
80.000	121.088	80.002	19.996	100.608	20.008	3.097	0.345
80.501	121.256	80.005	19.996	100.605	20.010	2.968	0.334
81.001	121.425	80.004	19.996	100.604	20.007	3.173	0.337
81.501	121.626	80.006	19.997	100.604	20.008	3.091	0.354
82.001	121.808	80.004	19.996	100.605	20.011	2.874	0.377
82.501	121.997	80.002	19.995	100.605	20.006	3.240	0.376
83.000	122.204	80.004	19.996	100.607	20.008	3.055	0.383
83.500	122.368	80.009	19.996	100.608	20.008	3.101	0.384
84.000	122.581	80.006	19.995	100.608	20.006	3.248	0.374
84.500	122.760	80.006	19.995	100.607	20.010	2.959	0.385
85.000	122.925	80.005	19.996	100.609	20.008	3.079	0.368
85.500	123.093	80.006	19.995	100.609	20.007	3.131	0.338
86.000	123.287	80.009	19.995	100.606	20.007	3.131	0.347
86.501	123.501	80.008	19.996	100.605	20.005	3.292	0.385
87.001	123.660	80.007	19.996	100.606	20.005	3.263	0.390
87.500	123.845	80.008	19.997	100.606	20.006	3.205	0.359
88.000	124.043	80.006	19.995	100.607	20.006	3.188	0.364
88.500	124.259	80.006	19.995	100.609	20.009	3.037	0.399
89.000	124.439	80.006	19.996	100.611	20.004	3.324	0.405
89.500	124.608	80.008	19.995	100.611	20.004	3.338	0.372
90.000	124.791	80.005	19.996	100.610	20.005	3.261	0.350
90.500	124.983	80.007	19.996	100.610	20.006	3.238	0.364
91.000	125.177	80.007	19.996	100.610	20.005	3.282	0.381
91.500	125.390	80.007	19.995	100.604	20.003	3.439	0.396
92.000	125.609	80.007	19.996	100.603	20.007	3.171	0.420
92.500	125.797	80.005	19.995	100.604	20.003	3.443	0.419
93.000	125.991	80.007	19.995	100.603	20.006	3.240	0.394
93.500	126.174	80.005	19.997	100.604	20.006	3.226	0.379
94.000	126.423	80.006	19.997	100.609	20.005	3.290	0.404
94.500	126.600	80.007	19.996	100.609	20.007	3.140	0.429
95.000	126.790	80.005	19.996	100.608	20.005	3.278	0.397
95.500	126.993	80.005	19.996	100.608	20.006	3.186	0.380
96.001	127.179	80.005	19.997	100.606	20.004	3.370	0.391
96.501	127.375	80.004	19.995	100.600	20.005	3.309	0.385
97.001	127.612	80.006	19.995	100.598	20.004	3.326	0.407
97.501	127.795	80.006	19.996	100.597	20.006	3.201	0.427
98.001	128.009	80.004	19.994	100.594	20.007	3.180	0.409
98.501	128.223	80.005	19.996	100.595	20.009	3.039	0.412
99.000	128.416	80.005	19.995	100.599	20.007	3.173	0.417
99.500	128.615	80.004	19.996	100.598	20.005	3.261	0.400
100.000	128.813	80.004	19.995	100.594	20.005	3.312	0.395
100.500	129.025	80.007	19.995	100.596	20.003	3.421	0.403
101.000	129.231	80.005	19.995	100.593	20.005	3.253	0.414
101.500	129.446	80.005	19.995	100.589	20.006	3.184	0.419
102.000	129.614	80.005	19.995	100.586	20.004	3.374	0.402
102.500	129.844	80.004	19.995	100.587	20.007	3.135	0.390
103.000	130.076	80.004	19.996	100.588	20.003	3.395	0.430
103.500	130.272	80.006	19.995	100.587	20.005	3.254	0.445
104.000	130.493	80.008	19.995	100.589	20.008	3.087	0.423
104.500	130.672	80.004	19.995	100.590	20.006	3.240	0.409
105.000	130.883	80.006	19.995	100.590	20.006	3.233	0.395
105.500	131.086	80.007	19.995	100.588	20.007	3.160	0.402
106.000	131.342	80.006	19.996	100.593	20.004	3.378	0.437
106.500	131.523	80.005	19.994	100.595	20.005	3.315	0.448
107.000	131.755	80.008	19.995	100.595	20.007	3.144	0.425
107.500	131.940	80.007	19.995	100.596	20.004	3.347	0.415
108.000	132.144	80.006	19.996	100.591	20.005	3.265	0.403
108.501	132.394	80.005	19.994	100.587	20.008	3.044	0.421
109.001	132.585	80.006	19.994	100.586	20.005	3.261	0.448
109.500	132.816	80.009	19.995	100.584	20.006	3.203	0.432
110.000	133.001	80.006	19.995	100.581	20.006	3.223	0.419
110.500	133.256	80.008	19.994	100.582	20.007	3.112	0.428
111.000	133.432	80.006	19.994	100.581	20.007	3.131	0.435
111.500	133.670	80.007	19.995	100.579	20.008	3.104	0.423
112.000	133.873	80.004	19.995	100.581	20.008	3.104	0.428
112.500	134.135	80.008	19.995	100.586	20.003	3.406	0.453
113.000	134.350	80.006	19.995	100.591	20.007	3.140	0.471
113.500	134.535	80.007	19.994	100.595	20.006	3.205	0.438
114.001	134.749	80.005	19.994	100.601	20.007	3.138	0.399
114.501	134.988	80.005	19.994	100.606	20.006	3.228	0.426
115.001	135.181	80.005	19.994	100.607	20.004	3.328	0.443
115.500	135.405	80.006	19.994	100.609	20.006	3.196	0.424
116.000	135.614	80.006	19.995	100.609	20.006	3.188	0.424
116.500	135.854	80.006	19.995	100.608	20.007	3.178	0.441
117.000	136.080	80.004	19.994	100.601	20.004	3.354	0.458
117.500	136.309	80.002	19.995	100.599	20.003	3.464	0.461
118.000	136.528	80.004	19.995	100.596	20.007	3.173	0.452
118.500	136.741	80.003	19.994	100.591	20.006	3.219	0.440
119.000	136.992	80.003	19.995	100.588	20.007	3.121	0.448
119.500	137.212	80.003	19.995	100.589	20.007	3.119	0.467
120.000	137.414	80.003	19.995	100.589	20.007	3.163	0.447
120.500	137.671	80.004	19.995	100.592	20.008	3.073	0.441
121.000	137.908	80.004	19.996	100.593	20.007	3.144	0.476
121.500	138.122	80.003	19.995	100.591	20.008	3.094	0.473
122.000	138.326	80.003	19.995	100.589	20.007	3.146	0.435
122.500	138.581	80.004	19.996	100.587	20.005	3.276	0.438
123.000	138.784	80.004	19.995	100.580	20.013	2.705	0.459
123.500	139.030	80.003	19.996	100.577	20.009	3.010	0.453
124.000	139.248	80.003	19.996	100.577	20.009	3.038	0.456
124.500	139.470	80.003	19.996	100.579	20.010	2.910	0.452
125.000	139.724	80.004	19.996	100.582	20.009	2.993	0.458
125.500	139.938	80.004	19.996	100.584	20.008	3.048	0.472
126.000	140.166	80.003	19.996	100.584	20.010	2.943	0.455
126.500	140.394	80.004	19.996	100.585	20.011	2.868	0.449
127.000	140.618	80.004	19.997	100.583	20.008	3.083	0.454
127.500	140.819	80.003	19.995	100.579	20.010	2.929	0.439
128.000	141.066	80.003	19.996	100.580	20.009	3.023	0.437
128.500	141.338	80.003	19.996	100.582	20.010	2.949	0.484
129.000	141.518	80.004	19.996	100.582	20.012	2.813	0.485
129.500	141.758	80.004	19.997	100.584	20.010	2.929	0.436
130.000	141.979	80.005	19.996	100.589	20.012	2.809	0.441
130.500	142.214	80.003	19.996	100.590	20.008	3.052	0.459
131.000	142.443	80.005	19.996	100.588	20.006	3.222	0.460
131.500	142.671	80.003	19.996	100.589	20.010	2.942	0.461
132.000	142.935	80.004	19.996	100.586	20.010	2.964	0.475
132.500	143.211	80.004	19.996	100.582	20.006	3.224	0.516
133.000	143.416	80.004	19.995	100.579	20.009	3.031	0.511
133.500	143.644	80.004	19.996	100.581	20.007	3.147	0.457
134.000	143.881	80.003	19.996	100.579	20.006	3.191	0.448
134.500	144.094	80.004	19.995	100.580	20.004	3.348	0.457
135.000	144.347	80.004	19.996	100.582	20.009	2.996	0.458
135.500	144.610	80.005	19.996	100.583	20.007	3.161	0.491
136.000	144.811	80.004	19.996	100.582	20.007	3.165	0.490
136.500	145.082	80.005	19.996	100.581	20.009	3.008	0.468
137.000	145.313	80.004	19.995	100.581	20.006	3.235	0.487
137.500	145.535	80.006	19.995	100.580	20.008	3.076	0.478
138.000	145.768	80.005	19.996	100.581	20.009	3.038	0.454
138.500	146.008	80.005	19.995	100.584	20.012	2.808	0.464
139.000	146.258	80.006	19.996	100.587	20.011	2.837	0.481
139.500	146.453	80.004	19.997	100.587	20.010	2.950	0.468
140.000	146.698	80.005	19.996	100.586	20.009	2.996	0.443
140.500	146.973	80.006	19.995	100.582	20.010	2.956	0.480
141.000	147.181	80.005	19.995	100.576	20.007	3.122	0.501
141.500	147.419	80.005	19.996	100.572	20.009	2.988	0.464
142.000	147.669	80.005	19.995	100.571	20.008	3.109	0.467
142.500	147.906	80.005	19.995	100.571	20.009	2.971	0.488
143.000	148.170	80.006	19.996	100.571	20.010	2.929	0.494
143.500	148.406	80.004	19.996	100.572	20.009	2.994	0.501
144.000	148.640	80.005	19.996	100.572	20.008	3.069	0.485
144.500	148.873	80.004	19.995	100.572	20.006	3.195	0.468
145.000	149.100	80.005	19.996	100.572	20.007	3.115	0.463
145.500	149.329	80.004	19.996	100.572	20.010	2.910	0.458
146.000	149.597	80.004	19.996	100.570	20.010	2.962	0.477
146.500	149.822	80.005	19.996	100.570	20.009	3.008	0.495
147.001	150.060	80.004	19.996	100.570	20.009	2.981	0.478
147.500	150.305	80.003	19.996	100.570	20.007	3.151	0.473
148.000	150.517	80.005	19.996	100.570	20.010	2.939	0.470
148.500	150.762	80.004	19.997	100.570	20.009	3.021	0.457
149.000	150.995	80.005	19.996	100.570	20.009	3.025	0.468
149.500	151.249	80.003	19.997	100.570	20.012	2.814	0.482
150.000	151.514	80.002	19.995	100.570	20.009	3.004	0.503
150.500	151.736	80.004	19.996	100.570	20.008	3.067	0.503
151.000	151.989	80.004	19.996	100.569	20.011	2.895	0.481
151.500	152.211	80.003	19.996	100.569	20.009	2.990	0.476
152.000	152.487	80.004	19.996	100.567	20.011	2.894	0.487
152.500	152.743	80.004	19.997	100.564	20.012	2.772	0.515
153.001	152.955	80.001	19.997	100.558	20.010	2.957	0.500
153.501	153.225	80.003	19.998	100.559	20.012	2.762	0.475
154.000	153.434	80.003	19.997	100.560	20.011	2.845	0.480
154.500	153.687	80.003	19.997	100.562	20.013	2.734	0.470
155.000	153.936	80.002	19.997	100.565	20.012	2.763	0.482
155.500	154.144	80.002	19.996	100.570	20.012	2.795	0.479
156.000	154.396	80.003	19.997	100.571	20.013	2.715	0.459
156.500	154.611	80.005	19.998	100.571	20.014	2.655	0.464
157.000	154.856	80.002	19.997	100.571	20.012	2.818	0.463
157.500	155.077	80.005	19.997	100.571	20.012	2.772	0.463
158.001	155.367	80.004	19.996	100.571	20.012	2.828	0.489
158.500	155.598	80.005	19.997	100.570	20.009	2.996	0.516
159.000	155.810	80.004	19.998	100.571	20.007	3.113	0.482
159.500	156.063	80.004	19.996	100.571	20.011	2.843	0.454
160.000	156.317	80.003	19.997	100.571	20.010	2.925	0.486
160.500	156.535	80.003	19.996	100.571	20.012	2.806	0.490
161.000	156.791	80.004	19.996	100.572	20.015	2.561	0.473
161.501	157.011	80.005	19.996	100.570	20.011	2.877	0.475
162.000	157.283	80.004	19.996	100.569	20.010	2.913	0.484
162.500	157.571	80.006	19.995	100.568	20.014	2.680	0.526
163.000	157.789	80.004	19.996	100.565	20.012	2.769	0.533
163.500	158.058	80.006	19.996	100.561	20.011	2.861	0.496
164.000	158.296	80.004	19.996	100.560	20.013	2.737	0.497
164.500	158.518	80.005	19.996	100.562	20.014	2.651	0.483
165.000	158.782	80.007	19.995	100.563	20.012	2.777	0.474
165.500	159.020	80.007	19.996	100.567	20.012	2.791	0.495
166.000	159.222	80.005	19.995	100.571	20.013	2.710	0.471
166.500	159.492	80.006	19.996	100.573	20.011	2.883	0.456
167.000	159.729	80.007	19.995	100.573	20.013	2.707	0.490
167.500	160.008	80.006	19.995	100.574	20.013	2.747	0.511
168.000	160.260	80.005	19.995	100.575	20.014	2.688	0.523
168.500	160.474	80.007	19.995	100.576	20.012	2.782	0.498
169.000	160.734	80.007	19.995	100.576	20.011	2.872	0.470
169.500	160.990	80.007	19.995	100.574	20.011	2.837	0.495
170.000	161.181	80.005	19.995	100.573	20.013	2.696	0.481
170.500	161.416	80.005	19.994	100.570	20.009	3.000	0.436
171.000	161.695	80.005	19.995	100.567	20.008	3.092	0.470
171.500	161.927	80.006	19.994	100.567	20.011	2.897	0.513
172.000	162.146	80.006	19.995	100.565	20.010	2.941	0.481
172.500	162.382	80.006	19.995	100.563	20.011	2.876	0.453
