Sample ID:	C:\MCC\MCC Cal\Test\LDPE_MCC_30K_min_210922_R3.txt
Sample Weight (mg):	4.31
Heating Rate (C/s):	0.5
Combustor Temp (C):	900
N2 Flow Rate (cc/min):	80
O2 Flow Rate (cc/min):	20
Calibration File:	C:\MCC\MCC Cal\Coeff1 JN10440_30_210304.txt.txt
T Correction Coefficients:	0	1.024463	0
Time Shift (s):	14
*
Time (s)	Temperature (C)	N2 flow rate (cc/min)	O2 flow rate (cc/min)	Flow Rate (cc/min)	Oxygen (%)	HRR (W/g)	Heating rate (C/s)
0.000	109.731	80.005	19.997	100.400	20.056	-0.267	0.005
0.500	109.716	80.005	19.996	100.396	20.052	0.002	-0.002
1.000	109.698	80.005	19.996	100.396	20.053	-0.085	-0.021
1.500	109.700	80.005	19.997	100.395	20.054	-0.134	-0.025
2.000	109.715	80.004	19.996	100.396	20.054	-0.115	0.001
2.500	109.736	80.005	19.996	100.395	20.055	-0.188	0.027
3.000	109.714	80.004	19.996	100.395	20.053	-0.045	0.017
3.500	109.709	80.005	19.996	100.394	20.055	-0.215	-0.014
4.000	109.704	80.005	19.995	100.395	20.052	0.041	-0.018
4.500	109.705	80.005	19.996	100.396	20.052	0.055	-0.007
5.000	109.689	80.005	19.996	100.398	20.055	-0.209	-0.010
5.500	109.688	80.005	19.995	100.400	20.051	0.063	-0.016
6.000	109.678	80.003	19.994	100.400	20.053	-0.069	-0.014
6.500	109.670	80.005	19.996	100.402	20.049	0.265	-0.014
7.000	109.643	80.006	19.995	100.405	20.052	-0.010	-0.026
7.500	109.664	80.005	19.996	100.409	20.049	0.223	-0.021
8.000	109.681	80.006	19.996	100.412	20.050	0.174	0.016
8.500	109.679	80.005	19.996	100.416	20.049	0.229	0.026
9.000	109.713	80.005	19.996	100.423	20.050	0.184	0.024
9.500	109.674	80.005	19.996	100.430	20.047	0.407	0.014
10.000	109.675	80.005	19.996	100.437	20.047	0.413	-0.021
10.500	109.708	80.007	19.996	100.445	20.045	0.555	-0.002
11.000	109.684	80.006	19.996	100.450	20.048	0.287	0.021
11.500	109.705	80.006	19.995	100.451	20.045	0.537	0.003
12.000	109.690	80.005	19.995	100.452	20.042	0.721	0.001
12.500	109.715	80.006	19.994	100.457	20.042	0.727	0.008
13.001	109.742	80.006	19.997	100.464	20.040	0.879	0.031
13.501	109.709	80.006	19.997	100.472	20.038	1.065	0.023
14.000	109.751	80.007	19.995	100.478	20.039	0.933	0.002
14.500	109.736	80.005	19.996	100.486	20.039	0.996	0.018
15.000	109.758	80.006	19.995	100.489	20.037	1.126	0.017
15.500	109.750	80.007	19.995	100.490	20.036	1.152	0.011
16.000	109.813	80.005	19.996	100.490	20.040	0.915	0.034
16.501	109.836	80.006	19.995	100.494	20.034	1.346	0.071
17.000	109.855	80.007	19.995	100.502	20.036	1.198	0.064
17.500	109.816	80.005	19.995	100.510	20.035	1.271	0.011
18.000	109.870	80.006	19.995	100.519	20.035	1.285	-0.003
18.500	109.913	80.005	19.996	100.527	20.035	1.239	0.056
19.000	109.924	80.006	19.996	100.533	20.028	1.747	0.076
19.500	109.943	80.006	19.996	100.533	20.035	1.271	0.042
20.000	110.011	80.005	19.995	100.532	20.032	1.451	0.058
20.500	110.018	80.005	19.995	100.533	20.031	1.579	0.081
21.000	110.068	80.005	19.995	100.536	20.032	1.465	0.066
21.500	110.103	80.006	19.996	100.537	20.029	1.664	0.071
22.000	110.143	80.006	19.995	100.538	20.031	1.514	0.080
22.500	110.179	80.006	19.996	100.538	20.029	1.708	0.076
23.000	110.188	80.006	19.996	100.536	20.032	1.498	0.060
23.500	110.270	80.005	19.996	100.533	20.029	1.696	0.068
24.000	110.272	80.004	19.996	100.533	20.029	1.722	0.087
24.500	110.343	80.004	19.995	100.532	20.029	1.682	0.079
25.000	110.387	80.005	19.996	100.534	20.028	1.759	0.094
25.500	110.436	80.006	19.996	100.534	20.026	1.878	0.104
26.000	110.443	80.007	19.996	100.538	20.027	1.868	0.074
26.500	110.509	80.007	19.996	100.540	20.029	1.694	0.064
27.000	110.586	80.004	19.994	100.542	20.026	1.919	0.108
27.500	110.631	80.006	19.996	100.546	20.025	1.959	0.133
28.000	110.664	80.006	19.996	100.549	20.024	2.052	0.100
28.500	110.740	80.005	19.996	100.552	20.028	1.761	0.093
29.000	110.812	80.006	19.996	100.556	20.025	1.961	0.129
29.500	110.849	80.005	19.997	100.560	20.023	2.097	0.129
30.000	110.942	80.006	19.996	100.562	20.026	1.913	0.120
30.500	111.001	80.006	19.996	100.564	20.025	1.969	0.141
31.000	111.081	80.007	19.996	100.565	20.024	2.050	0.145
31.501	111.129	80.007	19.998	100.567	20.023	2.101	0.133
32.000	111.205	80.006	19.996	100.568	20.025	1.997	0.127
32.500	111.267	80.007	19.997	100.568	20.025	1.967	0.131
33.000	111.323	80.006	19.997	100.569	20.023	2.159	0.128
33.500	111.432	80.008	19.996	100.569	20.020	2.374	0.141
34.001	111.496	80.007	19.996	100.569	20.022	2.240	0.169
34.501	111.588	80.007	19.993	100.568	20.025	2.004	0.165
35.000	111.627	80.006	19.994	100.568	20.024	2.089	0.143
35.500	111.738	80.006	19.993	100.568	20.022	2.204	0.140
36.000	111.804	80.013	19.996	100.568	20.022	2.194	0.163
36.500	111.888	80.011	19.998	100.568	20.024	2.072	0.164
37.000	111.988	80.010	19.994	100.569	20.024	2.091	0.167
37.500	112.081	80.008	19.996	100.570	20.020	2.368	0.188
38.000	112.146	80.008	19.996	100.574	20.022	2.180	0.176
38.500	112.221	80.008	19.995	100.574	20.020	2.352	0.149
39.000	112.322	80.008	19.994	100.574	20.020	2.336	0.158
39.500	112.410	80.008	19.995	100.574	20.023	2.109	0.182
40.000	112.529	80.007	19.994	100.573	20.019	2.423	0.198
40.500	112.605	80.008	19.994	100.569	20.021	2.293	0.201
41.000	112.707	80.008	19.994	100.570	20.020	2.325	0.187
41.500	112.817	80.008	19.993	100.573	20.019	2.410	0.194
42.000	112.930	80.008	19.995	100.575	20.019	2.390	0.217
42.500	112.999	80.008	19.996	100.576	20.019	2.431	0.203
43.000	113.130	80.007	19.994	100.581	20.018	2.487	0.191
43.500	113.252	80.008	19.995	100.588	20.021	2.269	0.227
44.000	113.326	80.008	19.993	100.585	20.019	2.420	0.225
44.501	113.420	80.008	19.996	100.582	20.016	2.629	0.182
45.000	113.516	80.006	19.996	100.577	20.018	2.521	0.179
45.500	113.619	80.008	19.995	100.573	20.017	2.564	0.194
46.000	113.817	80.008	19.995	100.564	20.016	2.630	0.249
46.500	113.889	80.008	19.996	100.564	20.017	2.551	0.285
47.000	113.984	80.007	19.995	100.570	20.016	2.612	0.219
47.500	114.100	80.007	19.994	100.581	20.017	2.543	0.189
48.000	114.236	80.007	19.994	100.583	20.018	2.523	0.232
48.500	114.342	80.006	19.994	100.585	20.015	2.717	0.247
49.000	114.466	80.007	19.994	100.585	20.018	2.482	0.236
49.500	114.576	80.006	19.994	100.581	20.016	2.671	0.232
50.000	114.693	80.006	19.995	100.576	20.017	2.592	0.230
50.500	114.824	80.005	19.996	100.578	20.016	2.656	0.237
51.000	114.933	80.006	19.996	100.579	20.018	2.509	0.244
51.500	115.083	80.007	19.995	100.580	20.016	2.656	0.250
52.000	115.186	80.006	19.995	100.582	20.015	2.681	0.257
52.500	115.304	80.005	19.996	100.582	20.017	2.594	0.238
53.000	115.428	80.006	19.995	100.580	20.013	2.895	0.231
53.500	115.606	80.004	19.995	100.581	20.015	2.747	0.272
54.000	115.694	80.004	19.996	100.585	20.014	2.800	0.284
54.500	115.840	80.005	19.995	100.586	20.014	2.753	0.250
55.000	115.943	80.006	19.996	100.589	20.011	2.986	0.241
55.500	116.061	80.005	19.995	100.594	20.013	2.893	0.235
56.001	116.209	80.004	19.995	100.599	20.012	2.960	0.244
56.500	116.346	80.006	19.996	100.601	20.012	2.946	0.276
57.000	116.511	80.006	19.996	100.605	20.015	2.731	0.293
57.500	116.599	80.006	19.995	100.607	20.012	2.925	0.277
58.000	116.751	80.004	19.996	100.606	20.013	2.889	0.247
58.500	116.914	80.006	19.996	100.607	20.011	2.974	0.278
59.001	117.040	80.005	19.996	100.608	20.013	2.830	0.302
59.500	117.174	80.006	19.996	100.609	20.012	2.932	0.275
60.000	117.305	80.006	19.995	100.609	20.011	2.984	0.262
60.500	117.453	80.004	19.995	100.610	20.013	2.881	0.272
61.000	117.620	80.004	19.995	100.609	20.013	2.845	0.297
61.500	117.760	80.005	19.995	100.609	20.011	3.021	0.311
62.000	117.894	80.004	19.996	100.609	20.008	3.223	0.291
62.500	118.033	80.006	19.995	100.609	20.010	3.051	0.273
63.000	118.224	80.005	19.996	100.609	20.013	2.895	0.301
63.500	118.331	80.005	19.995	100.609	20.009	3.164	0.314
64.000	118.466	80.007	19.995	100.609	20.009	3.173	0.270
64.500	118.660	80.006	19.995	100.610	20.013	2.873	0.285
65.000	118.837	80.006	19.995	100.611	20.013	2.885	0.350
65.500	118.966	80.006	19.995	100.610	20.012	2.922	0.339
66.000	119.113	80.006	19.995	100.611	20.010	3.084	0.291
66.500	119.268	80.005	19.995	100.610	20.015	2.701	0.289
67.000	119.429	80.006	19.995	100.610	20.010	3.100	0.309
67.500	119.611	80.006	19.995	100.610	20.011	2.993	0.330
68.000	119.739	80.005	19.995	100.610	20.010	3.067	0.326
68.500	119.907	80.007	19.995	100.610	20.011	3.009	0.303
69.000	120.091	80.006	19.996	100.611	20.011	3.019	0.324
69.500	120.207	80.006	19.995	100.611	20.012	2.956	0.326
70.000	120.382	80.006	19.994	100.610	20.012	2.898	0.295
70.501	120.540	80.005	19.994	100.609	20.010	3.063	0.312
71.001	120.739	80.006	19.996	100.609	20.011	2.972	0.345
71.501	120.907	80.007	19.995	100.609	20.011	3.035	0.362
72.001	121.067	80.007	19.995	100.609	20.013	2.883	0.347
72.501	121.260	80.006	19.995	100.611	20.011	2.970	0.340
73.001	121.417	80.006	19.995	100.612	20.012	2.934	0.352
73.501	121.591	80.007	19.995	100.612	20.011	3.011	0.341
74.000	121.744	80.007	19.994	100.609	20.008	3.211	0.329
74.500	121.942	80.006	19.995	100.604	20.010	3.112	0.339
75.000	122.131	80.006	19.995	100.603	20.014	2.822	0.369
75.500	122.269	80.006	19.994	100.598	20.010	3.091	0.357
76.001	122.450	80.005	19.994	100.594	20.013	2.863	0.323
76.501	122.608	80.005	19.994	100.591	20.009	3.144	0.329
77.000	122.836	80.006	19.995	100.596	20.011	3.029	0.362
77.501	123.000	80.005	19.995	100.596	20.010	3.045	0.389
78.001	123.160	80.005	19.995	100.598	20.009	3.118	0.359
78.501	123.345	80.004	19.995	100.597	20.009	3.166	0.335
79.001	123.557	80.005	19.996	100.599	20.011	3.006	0.371
79.501	123.728	80.005	19.995	100.598	20.008	3.223	0.390
80.000	123.896	80.004	19.996	100.592	20.013	2.832	0.360
80.500	124.093	80.004	19.995	100.592	20.011	3.037	0.352
81.000	124.271	80.005	19.994	100.596	20.014	2.760	0.371
81.500	124.425	80.005	19.997	100.599	20.015	2.685	0.353
82.000	124.584	80.005	19.996	100.598	20.013	2.844	0.322
82.500	124.819	80.004	19.996	100.600	20.009	3.140	0.353
83.000	124.963	80.004	19.996	100.600	20.011	3.039	0.386
83.500	125.168	80.004	19.995	100.601	20.012	2.946	0.364
84.000	125.339	80.004	19.996	100.600	20.013	2.867	0.363
84.500	125.541	80.003	19.996	100.602	20.012	2.966	0.375
85.000	125.729	80.003	19.996	100.606	20.010	3.069	0.382
85.501	125.906	80.004	19.995	100.608	20.013	2.853	0.377
86.001	126.089	80.004	19.995	100.607	20.010	3.114	0.363
86.500	126.290	80.003	19.995	100.609	20.008	3.215	0.372
87.000	126.525	80.003	19.995	100.611	20.011	2.988	0.410
87.500	126.674	80.004	19.995	100.611	20.012	2.899	0.410
88.000	126.868	80.002	19.996	100.612	20.011	3.035	0.363
88.500	127.054	80.004	19.996	100.613	20.012	2.948	0.361
89.000	127.219	80.004	19.997	100.614	20.011	3.035	0.366
89.500	127.434	80.004	19.996	100.614	20.012	2.926	0.365
90.000	127.640	80.002	19.995	100.613	20.009	3.132	0.400
90.500	127.821	80.004	19.997	100.613	20.013	2.895	0.404
91.000	128.005	80.004	19.996	100.612	20.010	3.104	0.376
91.501	128.209	80.003	19.996	100.612	20.013	2.891	0.376
92.001	128.420	80.005	19.996	100.612	20.013	2.826	0.402
92.500	128.619	80.005	19.997	100.612	20.016	2.663	0.413
93.000	128.795	80.004	19.996	100.612	20.015	2.713	0.392
93.500	129.044	80.004	19.996	100.612	20.011	3.041	0.399
94.000	129.174	80.005	19.997	100.612	20.016	2.669	0.402
94.500	129.424	80.005	19.996	100.612	20.017	2.576	0.380
95.000	129.619	80.007	19.996	100.612	20.013	2.845	0.413
95.500	129.819	80.007	19.995	100.612	20.013	2.827	0.420
96.000	130.030	80.006	19.997	100.612	20.013	2.877	0.403
96.500	130.201	80.007	19.996	100.611	20.016	2.673	0.396
97.000	130.403	80.006	19.996	100.610	20.013	2.853	0.378
97.500	130.598	80.007	19.996	100.609	20.014	2.768	0.385
98.000	130.815	80.006	19.996	100.609	20.012	2.899	0.404
98.500	131.035	80.007	19.996	100.608	20.012	2.944	0.425
99.001	131.231	80.007	19.995	100.608	20.014	2.784	0.426
99.501	131.410	80.007	19.996	100.609	20.012	2.958	0.395
100.001	131.623	80.007	19.995	100.609	20.012	2.934	0.383
100.500	131.833	80.007	19.996	100.608	20.013	2.877	0.408
101.000	132.041	80.007	19.996	100.608	20.011	2.998	0.420
101.500	132.262	80.007	19.996	100.607	20.011	2.976	0.423
102.000	132.442	80.007	19.996	100.607	20.010	3.053	0.415
102.500	132.645	80.006	19.995	100.606	20.010	3.055	0.392
103.000	132.854	80.006	19.995	100.605	20.011	2.986	0.397
103.500	133.073	80.007	19.996	100.604	20.008	3.254	0.420
104.000	133.272	80.006	19.995	100.604	20.010	3.063	0.423
104.501	133.494	80.005	19.995	100.604	20.010	3.108	0.420
105.001	133.685	80.005	19.996	100.604	20.012	2.914	0.418
105.501	133.938	80.006	19.994	100.604	20.014	2.800	0.429
106.000	134.151	80.004	19.995	100.603	20.012	2.936	0.455
106.500	134.372	80.005	19.996	100.601	20.012	2.898	0.449
107.000	134.548	80.005	19.996	100.600	20.013	2.853	0.415
107.500	134.789	80.005	19.995	100.601	20.011	2.974	0.407
108.000	135.015	80.005	19.997	100.602	20.011	2.986	0.442
108.500	135.244	80.005	19.996	100.604	20.012	2.930	0.461
109.000	135.446	80.005	19.996	100.606	20.011	2.970	0.443
109.500	135.644	80.005	19.996	100.608	20.011	2.988	0.415
110.000	135.863	80.006	19.996	100.608	20.011	3.015	0.409
110.500	136.095	80.004	19.995	100.608	20.013	2.889	0.434
111.000	136.300	80.005	19.997	100.608	20.011	3.035	0.444
111.500	136.530	80.006	19.996	100.608	20.013	2.843	0.436
112.000	136.742	80.004	19.996	100.608	20.012	2.942	0.439
112.500	136.937	80.004	19.997	100.607	20.012	2.950	0.424
113.000	137.183	80.005	19.996	100.605	20.012	2.962	0.424
113.500	137.407	80.005	19.997	100.602	20.013	2.889	0.455
114.000	137.628	80.006	19.997	100.602	20.011	3.017	0.457
114.500	137.811	80.005	19.997	100.600	20.012	2.964	0.425
115.000	138.037	80.005	19.997	100.601	20.012	2.922	0.406
115.500	138.257	80.005	19.996	100.601	20.010	3.061	0.427
116.000	138.440	80.004	19.998	100.602	20.016	2.628	0.425
116.500	138.699	80.005	19.996	100.600	20.012	2.944	0.422
117.000	138.907	80.006	19.997	100.597	20.010	3.047	0.455
117.500	139.146	80.006	19.996	100.597	20.009	3.171	0.457
118.000	139.315	80.006	19.997	100.598	20.009	3.161	0.428
118.500	139.563	80.007	19.997	100.600	20.012	2.936	0.412
119.000	139.778	80.006	19.996	100.602	20.011	3.019	0.440
119.500	140.051	80.007	19.997	100.606	20.013	2.895	0.476
120.001	140.277	80.006	19.996	100.606	20.011	3.019	0.493
120.501	140.475	80.006	19.995	100.606	20.016	2.665	0.461
121.000	140.721	80.007	19.997	100.606	20.010	3.110	0.434
121.500	140.911	80.006	19.997	100.607	20.015	2.699	0.440
122.000	141.115	80.007	19.996	100.606	20.016	2.640	0.415
122.500	141.356	80.006	19.996	100.606	20.011	3.031	0.419
123.000	141.593	80.006	19.996	100.607	20.016	2.667	0.461
123.500	141.820	80.008	19.996	100.605	20.014	2.756	0.471
124.000	142.042	80.007	19.996	100.604	20.014	2.780	0.457
124.500	142.261	80.007	19.995	100.604	20.013	2.855	0.445
125.000	142.516	80.007	19.996	100.603	20.013	2.847	0.457
125.500	142.743	80.006	19.995	100.601	20.015	2.717	0.478
126.000	142.976	80.008	19.996	100.602	20.017	2.557	0.472
126.500	143.196	80.007	19.995	100.603	20.013	2.889	0.457
127.000	143.417	80.006	19.996	100.600	20.011	2.974	0.447
127.500	143.663	80.008	19.995	100.598	20.016	2.675	0.454
128.000	143.916	80.007	19.995	100.597	20.012	2.924	0.483
128.500	144.105	80.007	19.995	100.594	20.015	2.687	0.470
129.000	144.360	80.006	19.995	100.590	20.012	2.938	0.443
129.500	144.619	80.006	19.995	100.593	20.013	2.891	0.479
130.000	144.799	80.006	19.993	100.596	20.012	2.902	0.477
130.500	145.059	80.005	19.995	100.598	20.012	2.938	0.440
131.000	145.297	80.007	19.994	100.601	20.014	2.813	0.469
131.500	145.548	80.006	19.996	100.606	20.011	2.993	0.493
132.000	145.775	80.006	19.995	100.606	20.011	2.989	0.483
132.500	145.986	80.007	19.994	100.605	20.010	3.080	0.458
133.000	146.218	80.005	19.995	100.603	20.013	2.868	0.441
133.500	146.461	80.003	19.995	100.603	20.013	2.856	0.459
134.000	146.698	80.005	19.995	100.601	20.012	2.904	0.477
134.500	146.949	80.003	19.994	100.598	20.012	2.949	0.484
135.000	147.170	80.006	19.995	100.598	20.013	2.831	0.480
135.500	147.419	80.004	19.995	100.602	20.012	2.920	0.471
136.000	147.663	80.004	19.995	100.599	20.013	2.878	0.482
136.500	147.880	80.006	19.995	100.602	20.017	2.597	0.477
137.000	148.104	80.004	19.995	100.605	20.013	2.852	0.451
137.500	148.348	80.004	19.995	100.607	20.012	2.929	0.455
138.000	148.599	80.005	19.995	100.607	20.013	2.864	0.481
138.500	148.838	80.005	19.995	100.609	20.014	2.807	0.492
139.000	149.052	80.003	19.996	100.608	20.014	2.817	0.471
139.500	149.341	80.005	19.996	100.603	20.015	2.698	0.479
140.000	149.570	80.006	19.996	100.600	20.013	2.842	0.511
140.500	149.794	80.005	19.996	100.599	20.013	2.862	0.486
141.000	150.019	80.004	19.996	100.598	20.015	2.746	0.451
141.500	150.251	80.003	19.995	100.597	20.013	2.833	0.453
142.000	150.506	80.005	19.996	100.595	20.012	2.957	0.472
142.500	150.751	80.004	19.995	100.592	20.014	2.789	0.494
143.000	150.979	80.006	19.995	100.586	20.016	2.657	0.487
143.500	151.233	80.004	19.996	100.581	20.013	2.856	0.478
144.000	151.469	80.005	19.995	100.576	20.013	2.858	0.486
144.500	151.712	80.005	19.995	100.575	20.015	2.748	0.485
145.000	151.941	80.005	19.996	100.575	20.012	2.967	0.476
145.500	152.176	80.005	19.995	100.577	20.009	3.131	0.468
146.000	152.394	80.003	19.995	100.576	20.012	2.910	0.458
146.500	152.684	80.004	19.995	100.576	20.016	2.675	0.480
147.000	152.901	80.004	19.995	100.576	20.014	2.772	0.508
147.500	153.131	80.005	19.996	100.575	20.015	2.750	0.477
148.000	153.352	80.005	19.995	100.572	20.013	2.855	0.449
148.500	153.599	80.005	19.995	100.572	20.015	2.714	0.459
149.000	153.851	80.004	19.995	100.572	20.012	2.904	0.484
149.500	154.085	80.005	19.996	100.573	20.015	2.700	0.493
150.000	154.298	80.005	19.995	100.573	20.015	2.724	0.467
150.500	154.570	80.005	19.995	100.575	20.016	2.670	0.466
151.000	154.786	80.005	19.995	100.576	20.014	2.823	0.486
151.500	155.017	80.006	19.995	100.576	20.015	2.750	0.468
152.000	155.239	80.005	19.996	100.575	20.014	2.765	0.450
152.501	155.526	80.007	19.995	100.575	20.012	2.910	0.481
153.000	155.766	80.005	19.995	100.575	20.015	2.686	0.518
153.500	156.013	80.004	19.995	100.574	20.015	2.734	0.507
154.000	156.235	80.005	19.995	100.575	20.013	2.842	0.478
154.500	156.457	80.005	19.994	100.576	20.015	2.686	0.456
155.000	156.715	80.006	19.995	100.579	20.019	2.398	0.462
155.500	156.975	80.003	19.995	100.583	20.016	2.664	0.500
156.000	157.241	80.004	19.996	100.585	20.015	2.686	0.522
156.500	157.435	80.006	19.996	100.588	20.018	2.502	0.492
157.000	157.688	80.004	19.996	100.591	20.015	2.740	0.453
157.500	157.954	80.006	19.995	100.589	20.018	2.469	0.483
158.000	158.214	80.004	19.996	100.586	20.018	2.520	0.523
158.500	158.443	80.006	19.996	100.588	20.018	2.526	0.507
159.000	158.700	80.005	19.995	100.584	20.015	2.680	0.487
159.500	158.911	80.006	19.995	100.581	20.018	2.516	0.477
160.000	159.160	80.006	19.995	100.578	20.015	2.682	0.464
160.500	159.401	80.005	19.995	100.577	20.016	2.633	0.475
161.000	159.635	80.006	19.995	100.573	20.018	2.518	0.482
161.500	159.896	80.006	19.995	100.574	20.019	2.439	0.485
162.000	160.153	80.005	19.995	100.574	20.017	2.541	0.507
162.500	160.425	80.004	19.995	100.574	20.017	2.565	0.524
163.000	160.632	80.006	19.997	100.573	20.018	2.472	0.504
163.500	160.882	80.003	19.995	100.573	20.017	2.585	0.468
164.000	161.128	80.004	19.995	100.572	20.015	2.713	0.477
164.500	161.363	80.006	19.996	100.571	20.016	2.628	0.488
165.000	161.605	80.006	19.995	100.571	20.015	2.745	0.478
165.500	161.897	80.006	19.996	100.571	20.019	2.452	0.506
166.000	162.133	80.005	19.996	100.570	20.018	2.482	0.531
166.500	162.346	80.005	19.995	100.570	20.018	2.476	0.488
167.000	162.618	80.005	19.996	100.572	20.018	2.510	0.467
167.500	162.859	80.005	19.994	100.572	20.018	2.526	0.499
168.000	163.089	80.006	19.996	100.572	20.018	2.491	0.493
168.500	163.339	80.004	19.995	100.572	20.017	2.593	0.476
169.000	163.642	80.005	19.996	100.572	20.017	2.556	0.517
169.500	163.831	80.005	19.995	100.571	20.016	2.611	0.522
170.000	164.082	80.005	19.994	100.572	20.020	2.374	0.466
170.500	164.325	80.005	19.996	100.572	20.017	2.534	0.467
171.000	164.598	80.005	19.994	100.568	20.016	2.670	0.505
171.500	164.887	80.005	19.995	100.561	20.018	2.498	0.539
172.000	165.098	80.006	19.995	100.552	20.017	2.534	0.531
172.500	165.355	80.005	19.996	100.546	20.016	2.676	0.484
