Sample ID:	C:\MCC\MCC Cal\Test\Polyisocyanurate_Foam_Board_MCC_30K_min_220211_R1.txt
Sample Weight (mg):	4.6
Heating Rate (C/s):	0.5
Combustor Temp (C):	900
N2 Flow Rate (cc/min):	80
O2 Flow Rate (cc/min):	20
Calibration File:	C:\MCC\MCC Cal\Coeff1 JN10440_30_210304.txt.txt
T Correction Coefficients:	0	1.024463	0
Time Shift (s):	14
*
Time (s)	Temperature (C)	N2 flow rate (cc/min)	O2 flow rate (cc/min)	Flow Rate (cc/min)	Oxygen (%)	HRR (W/g)	Heating rate (C/s)
0.000	112.568	80.009	19.995	103.644	19.865	0.085	0.000
0.500	112.593	80.007	19.995	103.645	19.862	0.258	-0.013
1.000	112.598	80.009	19.995	103.646	19.865	0.102	0.013
1.500	112.573	80.009	19.995	103.644	19.861	0.381	0.005
2.000	112.588	80.009	19.995	103.638	19.862	0.314	-0.015
2.500	112.630	80.008	19.995	103.632	19.861	0.360	0.023
3.000	112.609	80.008	19.993	103.632	19.861	0.376	0.039
3.500	112.577	80.010	19.993	103.630	19.860	0.397	-0.016
4.000	112.633	80.008	19.993	103.628	19.857	0.632	-0.014
4.500	112.599	80.009	19.993	103.628	19.854	0.853	0.023
5.000	112.578	80.008	19.993	103.628	19.859	0.507	-0.017
5.500	112.562	80.009	19.994	103.625	19.854	0.827	-0.046
6.001	112.591	80.009	19.996	103.622	19.855	0.781	-0.012
6.500	112.559	80.008	19.995	103.622	19.857	0.636	0.005
7.000	112.571	80.010	19.995	103.622	19.854	0.850	-0.012
7.500	112.578	80.008	19.995	103.621	19.852	1.001	-0.001
8.000	112.574	80.009	19.994	103.625	19.854	0.862	0.011
8.500	112.580	80.008	19.995	103.628	19.851	1.062	0.003
9.000	112.572	80.009	19.994	103.628	19.850	1.167	0.000
9.501	112.579	80.009	19.995	103.628	19.848	1.250	-0.001
10.000	112.584	80.009	19.995	103.628	19.846	1.387	0.005
10.500	112.554	80.008	19.995	103.627	19.847	1.348	-0.007
11.001	112.558	80.007	19.993	103.627	19.843	1.643	-0.026
11.500	112.600	80.009	19.995	103.627	19.842	1.672	0.010
12.000	112.621	80.010	19.996	103.630	19.844	1.531	0.055
12.500	112.604	80.011	19.995	103.637	19.842	1.668	0.034
13.000	112.603	80.010	19.993	103.644	19.845	1.497	-0.007
13.500	112.601	80.010	19.993	103.650	19.842	1.661	-0.011
14.000	112.575	80.011	19.994	103.658	19.839	1.875	-0.015
14.500	112.562	80.010	19.995	103.664	19.839	1.915	-0.033
15.000	112.614	80.012	19.994	103.665	19.838	2.002	-0.000
15.500	112.621	80.010	19.994	103.669	19.836	2.102	0.049
16.000	112.614	80.010	19.993	103.679	19.833	2.348	0.030
16.500	112.599	80.010	19.994	103.690	19.831	2.467	-0.011
17.000	112.584	80.010	19.994	103.705	19.833	2.317	-0.026
17.500	112.609	80.009	19.993	103.720	19.830	2.518	-0.010
18.000	112.651	80.010	19.993	103.732	19.830	2.549	0.039
18.500	112.656	80.011	19.992	103.740	19.832	2.381	0.057
19.000	112.682	80.010	19.993	103.748	19.828	2.684	0.039
19.500	112.644	80.010	19.993	103.755	19.825	2.905	0.009
20.000	112.677	80.010	19.993	103.764	19.829	2.645	-0.009
20.500	112.705	80.010	19.992	103.775	19.826	2.803	0.028
21.000	112.714	80.009	19.995	103.783	19.830	2.551	0.050
21.500	112.765	80.009	19.994	103.787	19.828	2.705	0.049
22.000	112.792	80.009	19.993	103.785	19.826	2.858	0.069
22.500	112.791	80.009	19.995	103.785	19.827	2.754	0.052
23.000	112.850	80.009	19.993	103.782	19.826	2.844	0.042
23.500	112.856	80.007	19.995	103.783	19.825	2.860	0.062
24.000	112.890	80.008	19.995	103.784	19.823	3.016	0.053
24.500	112.918	80.007	19.995	103.787	19.824	2.972	0.051
25.000	112.969	80.009	19.996	103.786	19.823	3.047	0.070
25.500	113.033	80.008	19.994	103.786	19.822	3.105	0.097
26.000	113.048	80.008	19.993	103.789	19.819	3.298	0.097
26.500	113.129	80.008	19.994	103.793	19.822	3.117	0.087
27.000	113.161	80.008	19.994	103.800	19.822	3.128	0.105
27.500	113.215	80.007	19.995	103.807	19.819	3.300	0.100
28.000	113.256	80.006	19.996	103.813	19.821	3.150	0.090
28.500	113.314	80.008	19.995	103.817	19.821	3.175	0.097
29.000	113.358	80.008	19.996	103.817	19.817	3.445	0.101
29.500	113.384	80.008	19.994	103.817	19.822	3.080	0.086
30.000	113.444	80.007	19.994	103.813	19.816	3.520	0.078
30.500	113.506	80.008	19.995	103.814	19.818	3.422	0.104
31.000	113.588	80.007	19.994	103.814	19.818	3.395	0.133
31.500	113.664	80.008	19.994	103.818	19.818	3.414	0.151
32.001	113.703	80.008	19.995	103.819	19.819	3.326	0.136
32.500	113.785	80.009	19.995	103.827	19.817	3.445	0.118
33.001	113.880	80.009	19.994	103.832	19.817	3.449	0.149
33.501	113.909	80.008	19.996	103.838	19.819	3.309	0.151
34.000	114.004	80.008	19.995	103.840	19.820	3.222	0.124
34.500	114.100	80.008	19.995	103.840	19.817	3.479	0.157
35.000	114.210	80.008	19.995	103.838	19.817	3.450	0.199
35.500	114.281	80.008	19.995	103.839	19.820	3.214	0.194
36.000	114.303	80.008	19.995	103.839	19.818	3.361	0.137
36.500	114.428	80.007	19.994	103.845	19.817	3.456	0.120
37.000	114.528	80.007	19.996	103.850	19.816	3.512	0.186
37.500	114.584	80.007	19.995	103.854	19.815	3.605	0.191
38.000	114.668	80.007	19.995	103.855	19.817	3.427	0.148
38.500	114.775	80.008	19.994	103.853	19.815	3.579	0.165
39.000	114.885	80.007	19.996	103.854	19.820	3.261	0.204
39.500	114.958	80.009	19.995	103.856	19.819	3.301	0.200
40.000	115.100	80.008	19.996	103.858	19.819	3.305	0.199
40.501	115.152	80.009	19.995	103.860	19.815	3.616	0.205
41.001	115.275	80.008	19.996	103.861	19.816	3.548	0.184
41.500	115.363	80.007	19.995	103.861	19.816	3.531	0.193
42.000	115.540	80.008	19.995	103.861	19.815	3.587	0.238
42.500	115.592	80.008	19.995	103.861	19.816	3.563	0.247
43.000	115.726	80.008	19.995	103.863	19.816	3.494	0.208
43.500	115.887	80.008	19.995	103.865	19.815	3.567	0.241
44.000	115.916	80.009	19.995	103.869	19.814	3.642	0.242
44.500	116.015	80.008	19.995	103.874	19.818	3.360	0.158
45.000	116.107	80.009	19.995	103.877	19.816	3.559	0.159
45.500	116.244	80.008	19.996	103.877	19.813	3.766	0.210
46.000	116.360	80.009	19.995	103.879	19.813	3.720	0.241
46.501	116.471	80.008	19.995	103.883	19.815	3.569	0.240
47.001	116.599	80.009	19.996	103.883	19.816	3.564	0.233
47.500	116.683	80.008	19.994	103.885	19.817	3.444	0.226
48.000	116.831	80.009	19.995	103.889	19.816	3.504	0.222
48.500	116.966	80.008	19.994	103.893	19.818	3.375	0.258
49.000	117.095	80.008	19.995	103.889	19.815	3.606	0.274
49.500	117.214	80.009	19.994	103.884	19.816	3.510	0.256
50.001	117.390	80.009	19.993	103.883	19.815	3.616	0.271
50.501	117.479	80.009	19.994	103.881	19.813	3.746	0.280
51.001	117.633	80.007	19.994	103.879	19.814	3.643	0.254
51.501	117.723	80.008	19.994	103.882	19.817	3.427	0.244
52.001	117.883	80.008	19.994	103.886	19.819	3.306	0.247
52.500	118.014	80.009	19.993	103.882	19.814	3.655	0.270
53.000	118.139	80.007	19.994	103.877	19.816	3.555	0.273
53.500	118.280	80.008	19.994	103.872	19.816	3.508	0.261
54.000	118.442	80.007	19.994	103.865	19.814	3.686	0.285
54.500	118.565	80.007	19.994	103.862	19.816	3.561	0.294
55.001	118.753	80.008	19.993	103.862	19.814	3.678	0.298
55.501	118.849	80.009	19.994	103.863	19.818	3.373	0.298
56.000	119.019	80.007	19.993	103.865	19.814	3.686	0.275
56.501	119.119	80.009	19.994	103.870	19.817	3.481	0.268
57.001	119.276	80.008	19.994	103.877	19.816	3.551	0.263
57.500	119.436	80.009	19.995	103.881	19.814	3.682	0.287
58.000	119.552	80.009	19.994	103.885	19.813	3.709	0.297
58.500	119.740	80.009	19.994	103.886	19.814	3.682	0.290
59.001	119.891	80.008	19.994	103.886	19.812	3.781	0.321
59.501	120.047	80.008	19.993	103.884	19.814	3.636	0.323
60.001	120.201	80.008	19.994	103.886	19.810	3.981	0.309
60.500	120.393	80.008	19.993	103.889	19.811	3.891	0.328
61.000	120.509	80.008	19.993	103.893	19.815	3.611	0.327
61.500	120.684	80.007	19.994	103.897	19.812	3.794	0.300
62.001	120.824	80.008	19.994	103.900	19.814	3.671	0.303
62.501	120.991	80.009	19.994	103.901	19.817	3.453	0.311
63.000	121.150	80.007	19.993	103.902	19.813	3.762	0.316
63.500	121.314	80.009	19.994	103.903	19.813	3.754	0.324
64.000	121.487	80.009	19.993	103.902	19.813	3.752	0.330
64.500	121.654	80.009	19.993	103.903	19.810	3.930	0.338
65.000	121.819	80.009	19.995	103.903	19.812	3.798	0.336
65.500	122.014	80.009	19.994	103.903	19.813	3.723	0.346
66.000	122.169	80.009	19.993	103.903	19.813	3.752	0.355
66.500	122.343	80.008	19.995	103.906	19.812	3.842	0.340
67.000	122.548	80.008	19.994	103.905	19.812	3.844	0.354
67.501	122.716	80.008	19.994	103.906	19.813	3.721	0.376
68.001	122.926	80.010	19.993	103.905	19.813	3.748	0.375
68.500	123.072	80.009	19.993	103.906	19.811	3.891	0.367
69.000	123.226	80.010	19.993	103.903	19.812	3.827	0.328
69.500	123.457	80.009	19.993	103.903	19.813	3.721	0.343
70.000	123.628	80.010	19.993	103.903	19.810	3.968	0.394
70.500	123.787	80.010	19.994	103.903	19.812	3.819	0.365
71.000	123.938	80.010	19.994	103.903	19.810	3.980	0.320
71.500	124.115	80.010	19.994	103.903	19.810	3.955	0.319
72.000	124.312	80.009	19.995	103.905	19.812	3.777	0.351
72.501	124.485	80.010	19.994	103.907	19.808	4.061	0.372
73.001	124.655	80.008	19.993	103.911	19.811	3.917	0.357
73.501	124.833	80.010	19.993	103.916	19.811	3.884	0.345
74.001	125.041	80.009	19.994	103.920	19.814	3.704	0.367
74.501	125.199	80.009	19.992	103.919	19.810	3.936	0.376
75.001	125.413	80.011	19.993	103.918	19.811	3.891	0.370
75.500	125.593	80.009	19.993	103.914	19.811	3.897	0.383
76.000	125.801	80.008	19.994	103.908	19.814	3.687	0.391
76.500	126.016	80.009	19.994	103.903	19.811	3.911	0.405
77.000	126.186	80.009	19.993	103.900	19.809	4.011	0.404
77.500	126.421	80.009	19.994	103.901	19.810	3.932	0.395
78.000	126.586	80.010	19.994	103.902	19.810	3.957	0.403
78.500	126.774	80.009	19.993	103.902	19.811	3.849	0.377
79.000	126.987	80.008	19.993	103.903	19.811	3.862	0.377
79.500	127.202	80.009	19.993	103.904	19.815	3.631	0.414
80.000	127.380	80.008	19.994	103.903	19.812	3.807	0.410
80.501	127.568	80.008	19.993	103.902	19.812	3.820	0.380
81.001	127.766	80.010	19.994	103.903	19.811	3.911	0.376
81.500	128.022	80.009	19.995	103.902	19.813	3.750	0.420
82.000	128.212	80.009	19.993	103.905	19.814	3.669	0.450
82.500	128.403	80.008	19.993	103.912	19.812	3.796	0.414
83.000	128.562	80.007	19.992	103.915	19.815	3.621	0.366
83.500	128.802	80.008	19.993	103.918	19.813	3.752	0.374
84.001	129.015	80.008	19.995	103.925	19.812	3.825	0.426
84.501	129.196	80.009	19.995	103.928	19.811	3.908	0.423
85.000	129.401	80.007	19.995	103.925	19.810	3.978	0.390
85.500	129.624	80.008	19.993	103.924	19.812	3.810	0.407
86.000	129.823	80.009	19.994	103.924	19.812	3.783	0.425
86.500	130.047	80.009	19.993	103.925	19.815	3.611	0.422
87.000	130.260	80.009	19.994	103.926	19.812	3.781	0.430
87.500	130.450	80.009	19.993	103.927	19.815	3.630	0.420
88.000	130.696	80.009	19.993	103.927	19.814	3.680	0.420
88.500	130.884	80.009	19.994	103.926	19.813	3.715	0.435
89.000	131.144	80.009	19.993	103.922	19.816	3.557	0.441
89.500	131.313	80.009	19.993	103.921	19.811	3.916	0.439
90.000	131.557	80.009	19.995	103.922	19.812	3.777	0.421
90.501	131.782	80.010	19.993	103.927	19.809	3.989	0.441
91.001	131.997	80.010	19.993	103.925	19.809	4.015	0.455
91.501	132.196	80.009	19.993	103.924	19.808	4.123	0.427
92.000	132.411	80.010	19.993	103.918	19.812	3.808	0.413
92.500	132.635	80.011	19.993	103.912	19.810	3.968	0.426
93.000	132.851	80.009	19.993	103.905	19.810	3.926	0.440
93.500	133.075	80.010	19.993	103.906	19.811	3.858	0.440
94.000	133.292	80.009	19.994	103.907	19.812	3.812	0.441
94.500	133.534	80.011	19.993	103.909	19.811	3.881	0.450
95.000	133.746	80.009	19.994	103.909	19.810	3.966	0.456
95.500	133.990	80.011	19.993	103.909	19.810	3.987	0.455
96.000	134.202	80.010	19.993	103.912	19.811	3.864	0.457
96.500	134.465	80.010	19.993	103.914	19.810	3.952	0.466
97.000	134.673	80.011	19.994	103.913	19.810	3.925	0.473
97.500	134.902	80.011	19.993	103.913	19.810	3.918	0.454
98.000	135.114	80.011	19.993	103.913	19.810	3.926	0.440
98.500	135.358	80.011	19.993	103.908	19.810	3.962	0.449
99.000	135.538	80.011	19.993	103.907	19.809	4.020	0.439
99.500	135.804	80.010	19.993	103.909	19.810	3.943	0.434
100.000	136.052	80.010	19.994	103.909	19.807	4.159	0.480
100.500	136.271	80.011	19.994	103.910	19.810	3.920	0.491
101.000	136.487	80.010	19.993	103.913	19.809	4.051	0.451
101.500	136.697	80.009	19.994	103.911	19.808	4.119	0.431
102.000	136.979	80.010	19.994	103.910	19.806	4.250	0.459
102.501	137.189	80.010	19.993	103.911	19.804	4.374	0.492
103.001	137.464	80.011	19.994	103.912	19.809	4.034	0.489
103.500	137.692	80.010	19.994	103.910	19.806	4.247	0.494
104.000	137.893	80.010	19.993	103.908	19.808	4.086	0.465
104.500	138.143	80.009	19.994	103.907	19.806	4.204	0.440
105.000	138.356	80.010	19.993	103.905	19.806	4.260	0.457
105.500	138.589	80.009	19.994	103.906	19.804	4.354	0.455
106.000	138.799	80.010	19.995	103.905	19.808	4.099	0.445
106.500	139.051	80.010	19.993	103.904	19.805	4.317	0.452
107.000	139.315	80.008	19.994	103.902	19.804	4.395	0.489
107.500	139.506	80.008	19.994	103.903	19.805	4.320	0.486
108.000	139.755	80.010	19.996	103.904	19.807	4.173	0.448
108.500	140.025	80.009	19.994	103.907	19.804	4.358	0.479
109.000	140.242	80.008	19.996	103.909	19.806	4.215	0.502
109.500	140.500	80.008	19.994	103.911	19.807	4.174	0.481
110.000	140.741	80.009	19.994	103.910	19.807	4.174	0.488
110.500	140.982	80.009	19.993	103.907	19.804	4.375	0.490
111.000	141.204	80.009	19.995	103.905	19.804	4.356	0.472
111.500	141.462	80.008	19.994	103.905	19.804	4.394	0.472
112.000	141.711	80.008	19.995	103.906	19.805	4.286	0.494
112.500	141.910	80.009	19.996	103.909	19.807	4.149	0.477
113.000	142.162	80.008	19.995	103.916	19.805	4.279	0.449
113.500	142.385	80.008	19.995	103.920	19.805	4.300	0.463
114.000	142.642	80.007	19.996	103.922	19.804	4.350	0.477
114.500	142.860	80.009	19.994	103.920	19.805	4.323	0.478
115.000	143.105	80.008	19.994	103.916	19.800	4.650	0.470
115.500	143.348	80.009	19.994	103.909	19.803	4.464	0.475
116.000	143.568	80.006	19.993	103.904	19.802	4.532	0.475
116.500	143.843	80.007	19.994	103.900	19.803	4.418	0.479
117.000	144.113	80.009	19.995	103.900	19.799	4.721	0.520
117.500	144.355	80.008	19.995	103.904	19.801	4.578	0.528
118.000	144.590	80.008	19.994	103.908	19.801	4.601	0.495
118.500	144.829	80.007	19.994	103.909	19.802	4.549	0.475
119.000	145.071	80.008	19.994	103.910	19.800	4.686	0.477
119.500	145.316	80.007	19.994	103.909	19.800	4.665	0.485
120.000	145.584	80.008	19.994	103.907	19.799	4.694	0.500
120.500	145.791	80.009	19.995	103.902	19.801	4.570	0.494
121.000	146.066	80.008	19.993	103.901	19.799	4.694	0.478
121.500	146.321	80.008	19.994	103.900	19.799	4.756	0.506
122.001	146.543	80.008	19.994	103.900	19.801	4.605	0.504
122.501	146.815	80.009	19.994	103.899	19.803	4.478	0.485
123.000	147.045	80.008	19.993	103.899	19.803	4.454	0.498
123.500	147.333	80.009	19.994	103.903	19.800	4.667	0.510
124.001	147.553	80.009	19.994	103.906	19.803	4.472	0.513
124.501	147.795	80.008	19.994	103.906	19.800	4.626	0.485
125.000	148.052	80.007	19.994	103.909	19.799	4.738	0.481
125.500	148.298	80.008	19.994	103.910	19.799	4.715	0.501
126.000	148.543	80.007	19.994	103.907	19.800	4.624	0.497
126.500	148.795	80.008	19.994	103.906	19.799	4.756	0.494
127.000	149.058	80.008	19.994	103.905	19.797	4.897	0.506
127.500	149.321	80.007	19.993	103.903	19.796	4.962	0.521
128.000	149.583	80.008	19.995	103.901	19.801	4.609	0.526
128.500	149.802	80.008	19.993	103.900	19.797	4.891	0.503
129.000	150.060	80.006	19.995	103.901	19.798	4.769	0.479
129.500	150.274	80.008	19.994	103.901	19.796	4.956	0.475
130.000	150.583	80.008	19.995	103.901	19.797	4.842	0.497
130.500	150.788	80.006	19.994	103.902	19.798	4.831	0.518
131.000	151.023	80.007	19.995	103.902	19.798	4.819	0.477
131.500	151.285	80.007	19.995	103.901	19.796	4.910	0.469
132.000	151.561	80.007	19.995	103.900	19.798	4.796	0.518
132.500	151.765	80.006	19.995	103.901	19.800	4.659	0.509
133.000	152.074	80.007	19.994	103.901	19.799	4.717	0.496
133.500	152.298	80.007	19.995	103.902	19.799	4.711	0.523
134.000	152.563	80.006	19.995	103.902	19.799	4.701	0.511
134.500	152.790	80.006	19.995	103.902	19.794	5.047	0.490
135.000	153.104	80.007	19.994	103.902	19.800	4.647	0.517
135.500	153.327	80.008	19.994	103.902	19.795	4.997	0.540
136.000	153.603	80.008	19.995	103.901	19.798	4.779	0.518
136.500	153.820	80.007	19.995	103.900	19.799	4.759	0.496
137.000	154.084	80.007	19.994	103.900	19.797	4.863	0.487
137.500	154.324	80.007	19.995	103.900	19.796	4.904	0.493
138.000	154.557	80.007	19.994	103.900	19.797	4.900	0.488
138.500	154.845	80.007	19.994	103.899	19.797	4.843	0.497
139.000	155.085	80.008	19.995	103.898	19.794	5.076	0.525
139.500	155.328	80.008	19.995	103.898	19.799	4.696	0.506
140.000	155.589	80.007	19.996	103.898	19.795	5.026	0.493
140.500	155.851	80.008	19.994	103.898	19.795	5.043	0.513
141.000	156.087	80.007	19.995	103.900	19.796	4.904	0.511
141.500	156.375	80.009	19.995	103.901	19.798	4.784	0.511
142.000	156.606	80.007	19.994	103.900	19.794	5.052	0.522
142.500	156.880	80.008	19.995	103.899	19.796	4.919	0.512
143.000	157.092	80.008	19.994	103.897	19.796	4.967	0.495
143.500	157.360	80.007	19.996	103.896	19.796	4.965	0.483
144.000	157.605	80.007	19.996	103.895	19.795	5.029	0.497
144.500	157.876	80.008	19.994	103.897	19.797	4.861	0.514
145.000	158.135	80.007	19.995	103.898	19.797	4.884	0.523
145.500	158.364	80.007	19.995	103.901	19.792	5.245	0.509
146.000	158.641	80.007	19.996	103.901	19.795	4.975	0.497
146.500	158.889	80.009	19.994	103.897	19.794	5.054	0.515
147.000	159.137	80.009	19.994	103.896	19.792	5.197	0.511
147.500	159.430	80.009	19.992	103.896	19.795	5.029	0.519
148.000	159.640	80.008	19.994	103.895	19.791	5.278	0.522
148.500	159.907	80.008	19.993	103.896	19.791	5.313	0.489
149.000	160.153	80.009	19.993	103.900	19.793	5.164	0.495
149.500	160.417	80.008	19.994	103.901	19.791	5.278	0.511
150.000	160.646	80.008	19.993	103.901	19.789	5.421	0.502
150.500	160.926	80.008	19.992	103.902	19.789	5.446	0.501
151.000	161.165	80.009	19.994	103.899	19.791	5.299	0.514
151.500	161.413	80.007	19.994	103.898	19.793	5.155	0.503
152.000	161.672	80.009	19.994	103.893	19.791	5.296	0.497
152.500	161.894	80.010	19.994	103.891	19.791	5.321	0.494
153.000	162.187	80.009	19.994	103.891	19.789	5.404	0.498
153.500	162.441	80.010	19.993	103.893	19.794	5.056	0.531
154.000	162.687	80.009	19.993	103.887	19.790	5.355	0.523
154.500	162.948	80.009	19.993	103.887	19.790	5.384	0.504
155.000	163.205	80.010	19.993	103.884	19.789	5.411	0.513
155.500	163.442	80.009	19.993	103.880	19.790	5.367	0.506
156.000	163.696	80.011	19.993	103.880	19.789	5.417	0.493
156.500	163.949	80.012	19.993	103.883	19.790	5.336	0.499
157.000	164.228	80.011	19.994	103.884	19.788	5.471	0.519
157.500	164.495	80.010	19.994	103.886	19.786	5.608	0.539
158.000	164.739	80.010	19.994	103.884	19.788	5.523	0.528
158.500	165.004	80.011	19.994	103.879	19.786	5.645	0.510
159.000	165.245	80.010	19.993	103.880	19.786	5.648	0.507
159.500	165.507	80.010	19.993	103.880	19.785	5.691	0.504
160.000	165.748	80.009	19.993	103.881	19.784	5.775	0.503
160.500	166.009	80.010	19.993	103.879	19.782	5.934	0.502
161.000	166.269	80.010	19.994	103.880	19.784	5.748	0.512
161.500	166.505	80.009	19.993	103.883	19.783	5.833	0.509
162.000	166.795	80.009	19.993	103.885	19.787	5.584	0.511
162.500	167.018	80.010	19.994	103.885	19.783	5.845	0.520
163.000	167.283	80.009	19.993	103.890	19.782	5.893	0.501
163.500	167.543	80.009	19.994	103.892	19.785	5.685	0.506
164.000	167.732	80.010	19.993	103.889	19.785	5.745	0.487
164.500	168.042	80.009	19.993	103.884	19.783	5.880	0.474
165.000	168.312	80.010	19.993	103.883	19.786	5.630	0.539
165.500	168.552	80.008	19.994	103.884	19.785	5.725	0.545
166.000	168.786	80.010	19.993	103.883	19.784	5.766	0.492
166.500	169.038	80.009	19.993	103.882	19.783	5.841	0.480
167.000	169.284	80.009	19.994	103.883	19.785	5.702	0.492
167.500	169.530	80.010	19.993	103.880	19.786	5.672	0.495
168.000	169.831	80.009	19.995	103.879	19.782	5.960	0.519
168.500	170.024	80.009	19.994	103.883	19.784	5.772	0.521
169.000	170.305	80.009	19.994	103.880	19.783	5.841	0.484
169.500	170.595	80.008	19.993	103.880	19.779	6.138	0.523
170.000	170.819	80.009	19.993	103.878	19.780	6.074	0.542
170.500	171.076	80.009	19.993	103.875	19.780	6.087	0.497
171.000	171.347	80.010	19.993	103.869	19.783	5.840	0.505
171.500	171.565	80.009	19.993	103.870	19.778	6.178	0.508
172.000	171.838	80.009	19.993	103.870	19.777	6.280	0.490
172.500	172.069	80.011	19.993	103.870	19.777	6.290	0.498
