Sample ID:	C:\MCC\MCC Cal\Test\PineLap_SidingA_MCC_30K_min_211122_R2.txt
Sample Weight (mg):	4.84
Heating Rate (C/s):	0.5
Combustor Temp (C):	900
N2 Flow Rate (cc/min):	80
O2 Flow Rate (cc/min):	20
Calibration File:	C:\MCC\MCC Cal\Coeff1 JN10440_30_210304.txt.txt
T Correction Coefficients:	0	1.024463	0
Time Shift (s):	14
*
Time (s)	Temperature (C)	N2 flow rate (cc/min)	O2 flow rate (cc/min)	Flow Rate (cc/min)	Oxygen (%)	HRR (W/g)	Heating rate (C/s)
-0.001	106.661	80.009	19.994	103.129	20.009	-0.140	-0.024
0.499	106.693	80.005	19.993	103.135	20.009	-0.152	0.010
1.000	106.717	80.008	19.993	103.136	20.011	-0.296	0.046
1.500	106.676	80.005	19.992	103.140	20.011	-0.258	0.020
2.000	106.676	80.005	19.996	103.141	20.013	-0.374	-0.029
2.500	106.676	80.008	19.993	103.141	20.008	-0.044	-0.021
3.000	106.678	80.002	20.002	103.141	20.009	-0.122	0.001
3.500	106.716	80.004	19.994	103.140	20.010	-0.176	0.021
4.000	106.679	80.005	19.993	103.139	20.013	-0.385	0.020
4.500	106.681	80.006	19.998	103.140	20.010	-0.205	-0.017
5.000	106.685	80.004	19.991	103.138	20.009	-0.112	-0.014
5.500	106.667	80.004	19.998	103.139	20.008	-0.089	-0.004
6.000	106.703	80.010	19.993	103.138	20.012	-0.308	0.002
6.500	106.710	80.009	19.990	103.136	20.006	0.047	0.031
7.000	106.709	80.008	19.993	103.131	20.010	-0.172	0.025
7.500	106.690	80.006	19.991	103.128	20.008	-0.058	-0.007
8.000	106.683	80.006	19.995	103.125	20.014	-0.446	-0.023
8.500	106.686	80.004	20.000	103.124	20.010	-0.230	-0.015
9.000	106.698	80.004	19.996	103.125	20.010	-0.229	0.005
9.500	106.671	80.006	19.994	103.128	20.007	0.033	-0.000
10.000	106.685	80.007	19.995	103.132	20.011	-0.270	-0.014
10.500	106.691	80.007	19.995	103.132	20.006	0.040	0.004
11.000	106.681	80.001	19.998	103.135	20.009	-0.147	0.008
11.500	106.680	80.001	20.003	103.135	20.010	-0.174	-0.008
12.000	106.685	80.009	19.987	103.135	20.008	-0.047	-0.004
12.500	106.661	80.001	20.009	103.138	20.012	-0.299	-0.007
13.000	106.703	80.007	19.992	103.138	20.008	-0.051	-0.000
13.500	106.707	80.004	19.997	103.137	20.010	-0.185	0.032
14.001	106.697	80.004	19.991	103.137	20.009	-0.149	0.020
14.500	106.685	80.007	19.998	103.139	20.003	0.270	-0.014
15.000	106.688	80.013	19.994	103.136	20.006	0.094	-0.016
15.500	106.675	79.999	20.000	103.141	20.006	0.073	-0.010
16.000	106.707	80.009	19.991	103.140	20.009	-0.154	0.005
16.500	106.739	80.013	19.993	103.141	20.005	0.140	0.041
17.000	106.699	80.002	19.993	103.142	20.006	0.044	0.028
17.500	106.717	80.009	19.995	103.145	20.002	0.318	-0.015
18.000	106.707	80.005	19.994	103.148	20.002	0.305	-0.007
18.500	106.697	80.012	19.993	103.157	20.002	0.309	-0.006
19.000	106.685	80.011	19.994	103.166	20.000	0.454	-0.021
19.500	106.737	80.007	19.990	103.173	19.997	0.636	0.008
20.000	106.707	80.007	19.993	103.179	20.001	0.411	0.031
20.500	106.710	80.002	19.992	103.183	19.999	0.563	-0.002
21.000	106.719	80.003	19.992	103.182	19.997	0.634	-0.007
21.500	106.749	80.005	19.999	103.183	19.999	0.561	0.026
22.000	106.729	80.008	19.997	103.185	19.996	0.729	0.024
22.500	106.754	80.004	19.999	103.189	19.999	0.554	0.007
23.000	106.695	79.998	19.997	103.189	19.997	0.634	-0.014
23.500	106.758	80.009	19.992	103.188	19.992	1.000	-0.015
24.000	106.772	80.008	19.996	103.186	19.994	0.856	0.041
24.500	106.758	80.008	19.996	103.183	19.991	1.047	0.038
25.000	106.772	80.002	19.996	103.179	19.989	1.198	-0.000
25.500	106.798	80.006	19.995	103.186	19.988	1.270	0.020
26.000	106.828	80.006	19.997	103.194	19.989	1.205	0.048
26.500	106.820	80.006	19.993	103.204	19.982	1.672	0.039
27.000	106.803	80.004	19.995	103.221	19.987	1.309	-0.002
27.500	106.829	80.010	19.992	103.235	19.986	1.421	-0.008
28.000	106.865	80.005	20.000	103.247	19.984	1.551	0.036
28.500	106.895	80.005	19.991	103.254	19.986	1.383	0.064
29.000	106.911	80.003	19.994	103.260	19.981	1.709	0.055
29.500	106.967	80.003	19.992	103.265	19.978	1.912	0.058
30.000	106.971	80.008	19.994	103.271	19.984	1.527	0.066
30.500	107.012	80.004	19.990	103.275	19.979	1.865	0.053
31.000	107.032	80.004	20.000	103.286	19.975	2.105	0.053
31.500	107.074	80.001	19.993	103.292	19.976	2.065	0.061
32.000	107.089	80.011	19.993	103.296	19.973	2.236	0.059
32.500	107.110	80.003	19.998	103.304	19.975	2.119	0.047
32.999	107.178	80.009	19.994	103.310	19.978	1.919	0.063
33.499	107.219	80.007	19.993	103.313	19.974	2.212	0.099
33.999	107.234	80.006	19.997	103.321	19.968	2.583	0.083
34.499	107.259	80.006	19.995	103.327	19.975	2.117	0.048
34.999	107.337	80.008	19.996	103.330	19.974	2.230	0.071
35.500	107.371	80.007	19.995	103.332	19.971	2.421	0.108
36.000	107.437	80.004	19.995	103.335	19.974	2.176	0.106
36.499	107.499	80.007	20.000	103.335	19.968	2.576	0.114
36.999	107.552	80.012	19.993	103.335	19.975	2.148	0.122
37.499	107.600	80.002	19.990	103.336	19.971	2.381	0.108
37.999	107.656	80.010	19.994	103.340	19.967	2.650	0.102
38.499	107.738	80.003	19.992	103.346	19.972	2.303	0.121
38.999	107.800	80.004	19.998	103.346	19.967	2.670	0.141
39.499	107.851	80.012	19.992	103.346	19.962	2.983	0.128
40.000	107.949	80.011	19.993	103.346	19.967	2.639	0.131
40.501	108.000	80.009	19.993	103.341	19.968	2.596	0.149
41.000	108.069	80.008	19.994	103.334	19.966	2.761	0.134
41.499	108.143	80.009	19.997	103.333	19.965	2.783	0.131
41.999	108.214	80.010	19.994	103.333	19.965	2.783	0.144
42.499	108.317	80.007	19.994	103.332	19.964	2.892	0.160
42.999	108.365	80.010	19.998	103.332	19.966	2.736	0.163
43.499	108.468	80.011	19.991	103.331	19.965	2.774	0.151
43.999	108.586	80.011	19.992	103.332	19.962	3.018	0.187
44.499	108.609	80.008	19.998	103.332	19.965	2.774	0.181
44.999	108.661	80.010	19.995	103.331	19.960	3.163	0.107
45.499	108.772	80.007	19.993	103.332	19.960	3.143	0.119
45.999	108.894	80.003	19.991	103.334	19.962	3.025	0.198
46.499	108.999	80.007	19.996	103.334	19.960	3.154	0.231
46.999	109.110	80.011	19.992	103.334	19.962	2.987	0.222
47.500	109.168	80.006	19.995	103.336	19.962	3.031	0.192
48.000	109.263	80.009	19.996	103.335	19.965	2.784	0.160
48.499	109.381	80.009	19.996	103.334	19.961	3.058	0.183
48.999	109.455	80.007	19.995	103.334	19.959	3.191	0.203
49.499	109.578	80.006	19.998	103.334	19.957	3.313	0.195
49.999	109.655	80.008	19.997	103.332	19.965	2.782	0.198
50.499	109.773	80.010	19.988	103.332	19.963	2.940	0.197
51.000	109.881	80.007	19.995	103.337	19.965	2.771	0.210
51.500	109.961	80.009	19.996	103.338	19.967	2.687	0.207
51.999	110.111	80.002	19.994	103.343	19.963	2.924	0.209
52.499	110.206	80.004	20.004	103.350	19.960	3.131	0.238
52.999	110.310	80.007	19.991	103.356	19.969	2.502	0.222
53.499	110.413	80.007	19.992	103.357	19.963	2.922	0.203
53.999	110.546	80.007	19.992	103.360	19.963	2.931	0.221
54.499	110.659	80.007	19.992	103.358	19.959	3.213	0.241
54.999	110.770	80.003	19.994	103.355	19.961	3.092	0.235
55.499	110.907	80.009	19.996	103.353	19.959	3.189	0.236
55.999	111.031	80.002	19.989	103.354	19.965	2.813	0.254
56.500	111.144	80.008	19.992	103.359	19.958	3.292	0.249
57.001	111.227	80.005	19.996	103.364	19.960	3.114	0.216
57.501	111.390	80.006	19.996	103.367	19.963	2.945	0.221
58.000	111.534	80.006	19.995	103.372	19.960	3.108	0.277
58.499	111.642	80.006	19.995	103.373	19.956	3.424	0.280
58.999	111.724	80.007	19.994	103.372	19.956	3.430	0.221
59.499	111.876	80.008	19.994	103.371	19.964	2.902	0.212
59.999	111.986	80.005	19.992	103.372	19.959	3.210	0.248
60.499	112.120	80.008	19.994	103.370	19.956	3.390	0.253
60.999	112.272	80.006	19.996	103.371	19.961	3.078	0.265
61.499	112.369	80.008	19.996	103.368	19.963	2.938	0.268
61.999	112.533	80.007	19.996	103.367	19.957	3.336	0.255
62.499	112.659	80.008	19.995	103.370	19.961	3.038	0.276
62.999	112.775	80.008	19.996	103.371	19.958	3.256	0.266
63.500	112.914	80.007	19.994	103.371	19.956	3.386	0.248
64.000	113.068	80.007	19.996	103.374	19.959	3.202	0.274
64.499	113.201	80.010	19.994	103.374	19.963	2.958	0.290
64.999	113.334	80.009	19.995	103.379	19.956	3.409	0.276
65.499	113.478	80.008	19.993	103.365	19.955	3.462	0.272
65.999	113.625	80.006	19.992	103.341	19.958	3.273	0.284
66.499	113.778	80.009	19.991	103.320	19.960	3.131	0.296
66.999	113.908	80.008	19.998	103.306	19.957	3.306	0.292
67.499	114.077	80.008	19.994	103.292	19.961	3.093	0.291
67.999	114.220	80.008	19.997	103.301	19.962	3.019	0.305
68.500	114.352	80.009	19.994	103.352	19.964	2.873	0.293
69.001	114.528	80.009	19.995	103.403	19.960	3.157	0.291
69.500	114.661	80.007	19.995	103.427	19.964	2.835	0.309
69.999	114.780	80.009	19.995	103.437	19.960	3.127	0.281
70.499	114.990	80.008	19.994	103.441	19.961	3.087	0.291
70.999	115.110	80.006	19.995	103.414	19.956	3.369	0.330
71.499	115.304	80.009	19.995	103.383	19.956	3.433	0.322
71.999	115.459	80.008	19.994	103.372	19.960	3.120	0.332
72.499	115.577	80.009	19.995	103.370	19.960	3.160	0.311
72.999	115.757	80.006	19.995	103.370	19.957	3.320	0.285
73.499	115.908	80.007	19.995	103.371	19.956	3.400	0.315
73.999	116.037	80.005	19.995	103.371	19.956	3.369	0.305
74.499	116.211	80.005	19.995	103.372	19.957	3.306	0.292
74.999	116.389	80.007	19.994	103.372	19.960	3.127	0.328
75.499	116.576	80.005	19.996	103.372	19.956	3.404	0.358
75.999	116.686	80.006	19.995	103.374	19.957	3.331	0.331
76.499	116.909	80.006	19.995	103.374	19.957	3.311	0.315
76.999	117.045	80.004	19.995	103.377	19.958	3.240	0.346
77.500	117.225	80.005	19.995	103.380	19.961	3.097	0.338
78.000	117.411	80.005	19.993	103.386	19.956	3.373	0.341
78.499	117.587	80.004	19.997	103.388	19.957	3.364	0.363
78.999	117.750	80.005	19.995	103.388	19.955	3.448	0.350
79.499	117.910	80.006	19.995	103.385	19.954	3.541	0.331
80.000	118.073	80.005	19.995	103.383	19.956	3.382	0.323
80.500	118.276	80.006	19.996	103.377	19.952	3.657	0.344
80.999	118.431	80.004	19.993	103.375	19.951	3.718	0.362
81.500	118.596	80.005	19.995	103.374	19.955	3.458	0.339
82.001	118.805	80.007	19.993	103.375	19.952	3.635	0.348
82.500	118.955	80.006	19.995	103.377	19.955	3.435	0.367
82.999	119.158	80.005	19.995	103.378	19.952	3.689	0.356
83.500	119.336	80.003	19.996	103.380	19.956	3.411	0.367
84.000	119.514	80.005	19.994	103.380	19.953	3.620	0.368
84.499	119.706	80.006	19.996	103.381	19.948	3.928	0.363
84.999	119.877	80.005	19.995	103.379	19.954	3.562	0.367
85.499	120.047	80.004	19.997	103.378	19.949	3.895	0.352
85.999	120.243	80.007	19.996	103.377	19.950	3.792	0.353
86.499	120.443	80.006	19.993	103.378	19.956	3.412	0.381
87.000	120.600	80.004	19.998	103.378	19.954	3.543	0.377
87.500	120.810	80.005	19.996	103.377	19.950	3.821	0.363
87.999	120.976	80.005	19.995	103.384	19.958	3.282	0.372
88.499	121.157	80.003	19.999	103.387	19.956	3.415	0.361
88.999	121.347	80.004	19.997	103.388	19.956	3.408	0.359
89.499	121.567	80.007	19.994	103.391	19.949	3.860	0.390
89.999	121.737	80.004	19.993	103.391	19.952	3.672	0.400
90.499	121.920	80.004	19.999	103.384	19.952	3.688	0.371
90.999	122.135	80.004	19.994	103.379	19.955	3.440	0.376
91.499	122.353	80.006	19.995	103.376	19.951	3.742	0.415
91.999	122.535	80.004	19.994	103.372	19.952	3.635	0.416
92.499	122.739	80.005	19.996	103.373	19.954	3.553	0.393
92.999	122.945	80.005	19.997	103.375	19.952	3.655	0.398
93.499	123.093	80.004	19.999	103.378	19.954	3.557	0.383
93.999	123.302	80.005	19.997	103.379	19.951	3.712	0.356
94.500	123.498	80.004	19.997	103.377	19.956	3.388	0.381
95.000	123.710	80.004	19.995	103.379	19.959	3.192	0.406
95.499	123.936	80.008	19.993	103.380	19.954	3.564	0.423
95.999	124.116	80.004	19.996	103.380	19.947	3.970	0.422
96.499	124.289	80.005	19.996	103.381	19.953	3.607	0.380
96.999	124.531	80.007	19.995	103.388	19.952	3.646	0.384
97.500	124.697	80.004	19.995	103.391	19.951	3.753	0.411
98.001	124.896	80.003	19.995	103.391	19.955	3.471	0.386
98.500	125.102	80.004	19.996	103.391	19.951	3.747	0.385
99.000	125.286	80.005	19.996	103.388	19.953	3.582	0.398
99.500	125.495	80.005	19.997	103.384	19.944	4.204	0.391
99.999	125.742	80.008	19.996	103.387	19.954	3.542	0.424
100.499	125.917	79.999	19.998	103.379	19.949	3.842	0.439
100.999	126.134	80.007	19.998	103.357	19.950	3.809	0.407
101.499	126.314	80.002	20.001	103.341	19.950	3.775	0.395
102.000	126.537	80.005	19.995	103.329	19.952	3.639	0.400
102.500	126.745	80.005	19.996	103.317	19.952	3.675	0.416
102.999	127.002	80.006	19.996	103.324	19.949	3.857	0.448
103.500	127.217	80.007	19.995	103.384	19.949	3.848	0.469
104.001	127.409	80.004	19.999	103.427	19.949	3.853	0.440
104.500	127.645	80.006	19.997	103.448	19.954	3.555	0.417
104.999	127.840	80.009	19.991	103.459	19.952	3.669	0.430
105.499	128.082	80.007	19.998	103.460	19.952	3.684	0.434
105.999	128.260	80.006	19.997	103.419	19.950	3.811	0.428
106.499	128.490	80.004	19.991	103.393	19.954	3.566	0.414
107.000	128.695	80.003	19.999	103.383	19.953	3.616	0.421
107.500	128.902	80.005	19.997	103.376	19.949	3.878	0.423
107.999	129.107	80.007	19.990	103.372	19.952	3.661	0.412
108.499	129.371	80.001	20.000	103.374	19.951	3.752	0.440
108.999	129.568	80.005	19.997	103.373	19.948	3.912	0.465
109.499	129.757	80.003	19.995	103.372	19.953	3.621	0.423
109.999	129.953	80.006	19.995	103.372	19.949	3.874	0.385
110.499	130.196	80.008	19.993	103.371	19.949	3.892	0.412
110.999	130.406	80.005	19.996	103.373	19.944	4.191	0.446
111.500	130.666	80.005	19.996	103.375	19.947	4.032	0.462
112.000	130.862	80.005	19.988	103.376	19.947	4.034	0.463
112.499	131.043	80.005	19.998	103.380	19.950	3.819	0.417
112.999	131.314	80.002	20.000	103.387	19.947	3.990	0.415
113.499	131.497	79.999	19.994	103.389	19.948	3.949	0.453
113.999	131.683	80.003	20.005	103.392	19.952	3.679	0.411
114.499	131.964	80.010	19.994	103.389	19.944	4.176	0.417
114.999	132.198	80.005	19.990	103.385	19.948	3.923	0.491
115.499	132.398	80.003	19.993	103.380	19.948	3.916	0.475
115.999	132.664	80.007	19.995	103.376	19.946	4.043	0.450
116.499	132.860	80.005	19.994	103.376	19.953	3.594	0.464
116.999	133.083	80.006	19.994	103.385	19.950	3.833	0.441
117.499	133.267	80.007	19.993	103.392	19.948	3.907	0.413
117.999	133.541	80.007	19.995	103.399	19.951	3.733	0.432
118.499	133.766	80.007	19.995	103.406	19.950	3.822	0.479
118.999	134.016	80.007	19.995	103.410	19.948	3.920	0.487
119.499	134.197	80.006	19.995	103.411	19.947	4.009	0.453
120.000	134.390	80.008	19.996	103.411	19.951	3.765	0.403
120.500	134.713	80.006	19.995	103.411	19.952	3.650	0.445
120.999	134.895	80.007	19.996	103.409	19.948	3.963	0.510
121.499	135.115	80.007	19.996	103.409	19.946	4.065	0.453
121.999	135.324	80.008	19.994	103.408	19.950	3.799	0.415
122.500	135.533	80.008	19.994	103.405	19.950	3.828	0.424
123.000	135.767	80.005	19.993	103.402	19.953	3.608	0.430
123.499	135.997	80.006	19.994	103.404	19.947	4.006	0.454
123.999	136.248	80.004	19.993	103.403	19.947	4.028	0.473
124.499	136.469	80.000	19.994	103.402	19.951	3.704	0.476
124.999	136.684	80.005	20.003	103.405	19.951	3.761	0.453
125.499	136.930	80.004	19.992	103.408	19.953	3.632	0.448
125.999	137.175	80.005	19.996	103.409	19.951	3.766	0.476
126.499	137.389	80.006	19.994	103.410	19.949	3.863	0.475
126.999	137.607	80.004	19.994	103.412	19.948	3.935	0.446
127.499	137.872	80.006	19.997	103.413	19.950	3.824	0.457
127.999	138.106	80.010	19.994	103.415	19.948	3.951	0.491
128.500	138.342	80.007	19.992	103.414	19.945	4.122	0.484
129.000	138.590	80.009	19.998	103.415	19.948	3.946	0.477
129.500	138.797	80.004	19.987	103.414	19.951	3.744	0.470
130.000	139.036	80.003	19.993	103.415	19.949	3.892	0.451
130.500	139.284	80.009	19.996	103.416	19.950	3.779	0.466
131.000	139.532	80.004	20.000	103.413	19.950	3.817	0.491
131.500	139.771	80.004	19.995	103.407	19.951	3.702	0.492
132.001	140.021	80.004	20.004	103.407	19.950	3.826	0.488
132.501	140.234	80.005	19.991	103.403	19.947	3.977	0.476
133.000	140.485	80.011	19.990	103.402	19.949	3.866	0.464
133.500	140.750	80.004	19.995	103.398	19.950	3.773	0.490
134.000	140.941	80.011	19.991	103.397	19.952	3.675	0.486
134.500	141.203	80.008	19.992	103.394	19.954	3.549	0.454
135.000	141.434	80.005	19.994	103.390	19.952	3.669	0.473
135.500	141.671	80.006	19.994	103.387	19.953	3.631	0.481
136.000	141.890	80.007	19.995	103.389	19.950	3.771	0.462
136.500	142.093	80.009	19.994	103.390	19.952	3.678	0.439
137.000	142.366	80.007	19.995	103.387	19.948	3.964	0.449
137.500	142.602	80.008	19.993	103.388	19.952	3.677	0.493
138.000	142.846	80.005	19.996	103.387	19.948	3.964	0.495
138.500	143.092	80.004	19.997	103.383	19.956	3.419	0.485
139.000	143.324	80.007	19.994	103.381	19.954	3.502	0.484
139.500	143.589	80.006	19.993	103.385	19.952	3.640	0.487
140.000	143.835	80.007	19.994	103.388	19.952	3.661	0.504
140.500	144.082	80.008	19.994	103.388	19.958	3.299	0.502
141.000	144.291	80.007	19.996	103.389	19.947	3.982	0.475
141.500	144.521	80.007	19.995	103.388	19.948	3.910	0.448
142.000	144.770	80.006	19.993	103.384	19.949	3.842	0.459
142.500	145.037	80.007	19.995	103.380	19.950	3.784	0.498
143.000	145.281	80.009	19.994	103.378	19.948	3.957	0.514
143.500	145.492	80.005	19.994	103.377	19.952	3.646	0.483
144.000	145.754	80.008	19.993	103.377	19.947	3.988	0.464
144.500	146.025	80.007	19.994	103.378	19.951	3.735	0.503
145.000	146.275	80.006	19.994	103.378	19.948	3.935	0.527
145.500	146.471	80.009	19.993	103.378	19.952	3.656	0.483
146.000	146.732	80.006	19.994	103.378	19.952	3.640	0.451
146.500	146.984	80.008	19.994	103.378	19.950	3.822	0.485
147.000	147.189	80.009	19.993	103.377	19.949	3.887	0.485
147.500	147.425	80.007	19.995	103.378	19.951	3.753	0.449
148.000	147.724	80.007	19.995	103.379	19.949	3.844	0.488
148.500	147.958	80.006	19.995	103.379	19.950	3.773	0.534
149.000	148.184	80.007	19.993	103.378	19.947	3.988	0.497
149.500	148.420	80.009	19.996	103.380	19.949	3.839	0.461
150.000	148.691	80.014	19.993	103.380	19.947	3.997	0.484
150.500	148.853	80.009	19.994	103.382	19.953	3.632	0.470
151.000	149.149	80.008	19.993	103.384	19.947	3.974	0.446
151.500	149.448	80.008	19.994	103.384	19.949	3.841	0.527
152.000	149.665	80.011	19.994	103.382	19.946	4.095	0.556
152.500	149.929	80.009	19.993	103.381	19.948	3.944	0.499
153.000	150.183	80.009	19.995	103.379	19.947	3.988	0.499
153.500	150.357	80.007	19.994	103.382	19.950	3.813	0.473
154.000	150.641	80.009	19.994	103.382	19.946	4.083	0.443
154.500	150.901	80.008	19.996	103.382	19.944	4.219	0.501
155.000	151.130	80.008	19.995	103.382	19.950	3.812	0.516
155.500	151.363	80.008	19.995	103.380	19.947	4.034	0.476
156.000	151.584	80.007	19.994	103.374	19.950	3.824	0.459
156.500	151.827	80.006	19.995	103.373	19.947	4.015	0.459
157.000	152.090	80.007	19.994	103.372	19.945	4.115	0.485
157.500	152.360	80.007	19.995	103.372	19.946	4.089	0.519
158.000	152.595	80.008	19.995	103.374	19.951	3.707	0.519
158.500	152.863	80.004	19.996	103.380	19.946	4.047	0.504
159.000	153.060	80.006	19.994	103.382	19.947	4.011	0.484
159.500	153.292	80.006	19.996	103.386	19.949	3.836	0.447
160.000	153.554	80.005	19.996	103.386	19.949	3.864	0.461
160.500	153.792	80.004	19.996	103.389	19.955	3.451	0.497
161.000	154.032	80.007	19.995	103.390	19.955	3.437	0.490
161.500	154.270	80.006	19.995	103.391	19.953	3.567	0.478
162.000	154.476	80.004	19.996	103.392	19.951	3.758	0.460
162.500	154.724	80.007	19.996	103.393	19.951	3.706	0.449
163.000	154.982	80.003	19.996	103.389	19.951	3.729	0.480
163.500	155.245	80.007	19.994	103.382	19.948	3.928	0.513
164.000	155.490	80.005	19.995	103.380	19.952	3.662	0.514
164.500	155.672	80.006	19.995	103.382	19.953	3.577	0.468
165.000	155.939	80.005	19.995	103.388	19.951	3.766	0.438
165.500	156.196	80.006	19.996	103.394	19.956	3.397	0.486
166.000	156.453	80.007	19.996	103.395	19.950	3.828	0.519
166.500	156.702	80.004	19.996	103.396	19.950	3.782	0.510
167.000	156.933	80.008	19.995	103.391	19.948	3.917	0.493
167.500	157.180	80.004	19.996	103.383	19.956	3.369	0.479
168.000	157.420	80.006	19.995	103.377	19.954	3.547	0.483
168.500	157.669	80.007	19.995	103.375	19.953	3.580	0.488
169.000	157.931	80.005	19.996	103.373	19.951	3.744	0.500
169.500	158.149	80.005	19.996	103.373	19.948	3.927	0.495
170.000	158.381	80.006	19.993	103.372	19.953	3.578	0.465
170.500	158.662	80.003	19.998	103.373	19.949	3.845	0.482
171.000	158.884	80.006	19.995	103.372	19.948	3.929	0.508
171.500	159.136	80.006	19.994	103.375	19.955	3.464	0.488
172.000	159.402	80.003	19.996	103.375	19.950	3.787	0.496
