Sample ID:	C:\MCC\MCC Cal\Test\TREX_Board\TREX_Board_30_1.txt
Sample Weight (mg):	4.91
Heating Rate (C/s):	0.5
Combustor Temp (C):	900
N2 Flow Rate (cc/min):	80
O2 Flow Rate (cc/min):	20
Calibration File:	C:\MCC\MCC Cal\Coeff1 JN10440_30_210304.txt.txt
T Correction Coefficients:	0	1.024463	0
Time Shift (s):	14
*
Time (s)	Temperature (C)	N2 flow rate (cc/min)	O2 flow rate (cc/min)	Flow Rate (cc/min)	Oxygen (%)	HRR (W/g)	Heating rate (C/s)
0.000	107.836	79.981	19.992	99.901	20.105	0.183	-0.006
0.499	107.852	79.981	19.992	99.901	20.108	-0.014	0.021
1.000	107.840	79.982	19.992	99.904	20.110	-0.146	0.019
1.500	107.844	79.980	19.992	99.904	20.108	-0.026	-0.002
2.000	107.862	79.981	19.992	99.906	20.108	0.010	0.007
2.500	107.851	79.981	19.992	99.909	20.110	-0.129	0.014
3.000	107.849	79.982	19.992	99.911	20.110	-0.171	-0.003
3.500	107.835	79.983	19.993	99.912	20.108	0.014	-0.014
4.000	107.864	79.982	19.993	99.912	20.107	0.021	-0.000
4.500	107.841	79.982	19.992	99.912	20.111	-0.226	0.011
5.000	107.856	79.982	19.992	99.914	20.109	-0.100	-0.001
5.500	107.825	79.981	19.991	99.909	20.109	-0.083	-0.012
6.000	107.808	79.982	19.992	99.908	20.107	0.043	-0.032
6.500	107.835	79.983	19.992	99.907	20.107	0.043	-0.019
7.000	107.825	79.982	19.992	99.906	20.108	-0.031	0.013
7.500	107.816	79.982	19.992	99.906	20.106	0.143	-0.001
8.000	107.868	79.982	19.993	99.912	20.108	-0.002	0.012
8.500	107.827	79.982	19.992	99.908	20.106	0.141	0.026
9.000	107.828	79.982	19.991	99.903	20.110	-0.136	-0.015
9.500	107.804	79.982	19.992	99.901	20.110	-0.152	-0.031
10.000	107.782	79.982	19.992	99.902	20.109	-0.103	-0.034
10.500	107.820	79.982	19.992	99.902	20.109	-0.109	-0.015
11.000	107.818	79.981	19.992	99.907	20.108	-0.007	0.026
11.500	107.809	79.981	19.992	99.914	20.103	0.297	0.012
12.000	107.811	79.981	19.992	99.916	20.109	-0.067	-0.009
12.500	107.813	79.981	19.992	99.915	20.107	0.076	-0.001
13.000	107.803	79.981	19.992	99.914	20.107	0.022	-0.002
13.500	107.795	79.981	19.992	99.914	20.106	0.103	-0.013
14.000	107.804	79.981	19.992	99.914	20.107	0.034	-0.009
14.500	107.799	79.981	19.992	99.915	20.107	0.076	0.002
15.000	107.821	79.982	19.992	99.917	20.105	0.202	0.011
15.500	107.789	79.982	19.992	99.918	20.105	0.145	0.004
16.000	107.801	79.980	19.991	99.918	20.106	0.117	-0.015
16.500	107.802	79.981	19.992	99.918	20.107	0.055	-0.004
17.000	107.840	79.980	19.992	99.918	20.105	0.173	0.026
17.500	107.823	79.981	19.992	99.917	20.107	0.043	0.030
18.000	107.799	79.981	19.992	99.918	20.105	0.155	-0.010
18.500	107.822	79.980	19.992	99.918	20.105	0.147	-0.021
19.000	107.805	79.980	19.991	99.919	20.103	0.285	0.003
19.500	107.794	79.980	19.992	99.920	20.106	0.119	-0.011
20.000	107.844	79.981	19.992	99.921	20.102	0.395	0.006
20.500	107.807	79.980	19.992	99.924	20.104	0.238	0.026
21.000	107.824	79.980	19.992	99.930	20.102	0.342	-0.003
21.500	107.804	79.979	19.992	99.938	20.100	0.476	-0.012
22.000	107.826	79.982	19.992	99.944	20.103	0.307	-0.001
22.500	107.813	79.980	19.992	99.951	20.102	0.368	0.005
23.000	107.844	79.979	19.993	99.960	20.099	0.569	0.013
23.500	107.847	79.981	19.992	99.966	20.094	0.866	0.026
24.000	107.857	79.980	19.992	99.973	20.097	0.702	0.023
24.500	107.899	79.979	19.992	99.982	20.096	0.758	0.032
25.000	107.877	79.981	19.993	99.993	20.095	0.816	0.036
25.500	107.877	79.981	19.994	100.001	20.096	0.777	-0.001
26.000	107.904	79.980	19.993	100.008	20.089	1.210	0.002
26.500	107.912	79.981	19.992	100.013	20.092	0.992	0.031
27.000	107.938	79.981	19.993	100.020	20.089	1.210	0.035
27.500	107.971	79.980	19.992	100.023	20.087	1.324	0.047
28.000	108.007	79.980	19.993	100.028	20.088	1.260	0.064
28.500	108.015	79.982	19.992	100.036	20.087	1.310	0.056
29.000	108.022	79.981	19.992	100.040	20.089	1.217	0.029
29.500	108.060	79.981	19.992	100.040	20.085	1.465	0.030
30.000	108.100	79.982	19.993	100.040	20.086	1.364	0.062
30.500	108.112	79.982	19.993	100.042	20.082	1.650	0.065
31.000	108.127	79.981	19.994	100.041	20.084	1.534	0.039
31.500	108.175	79.981	19.994	100.046	20.080	1.762	0.045
32.000	108.225	79.982	19.992	100.052	20.078	1.890	0.080
32.499	108.292	79.983	19.992	100.048	20.078	1.880	0.108
32.999	108.341	79.983	19.992	100.041	20.079	1.826	0.116
33.500	108.332	79.982	19.992	100.042	20.077	1.985	0.078
34.000	108.429	79.983	19.993	100.044	20.076	1.997	0.064
34.499	108.434	79.983	19.994	100.046	20.077	1.971	0.095
34.999	108.501	79.984	19.993	100.057	20.077	1.946	0.087
35.500	108.556	79.982	19.993	100.068	20.074	2.161	0.097
36.000	108.591	79.983	19.991	100.070	20.076	2.029	0.106
36.499	108.639	79.983	19.993	100.068	20.073	2.205	0.087
37.000	108.677	79.982	19.992	100.063	20.075	2.088	0.084
37.500	108.703	79.983	19.992	100.062	20.074	2.117	0.075
37.999	108.754	79.983	19.993	100.062	20.074	2.139	0.071
38.499	108.811	79.983	19.993	100.063	20.074	2.160	0.092
38.999	108.891	79.981	19.992	100.064	20.071	2.317	0.122
39.499	108.925	79.982	19.992	100.068	20.075	2.114	0.126
39.999	109.009	79.983	19.993	100.070	20.074	2.158	0.116
40.499	109.072	79.981	19.993	100.069	20.072	2.300	0.133
40.999	109.132	79.982	19.993	100.069	20.073	2.207	0.135
41.499	109.222	79.981	19.993	100.068	20.072	2.264	0.136
41.999	109.287	79.982	19.992	100.066	20.076	2.012	0.152
42.499	109.368	79.981	19.993	100.064	20.073	2.234	0.150
42.999	109.423	79.983	19.993	100.064	20.074	2.148	0.141
43.499	109.503	79.982	19.993	100.065	20.074	2.155	0.136
44.000	109.591	79.984	19.992	100.065	20.072	2.302	0.151
44.500	109.645	79.983	19.993	100.068	20.073	2.202	0.155
44.999	109.699	79.980	19.994	100.069	20.073	2.243	0.125
45.500	109.771	79.982	19.992	100.073	20.072	2.271	0.118
46.000	109.838	79.981	19.993	100.079	20.071	2.317	0.133
46.499	109.927	79.981	19.993	100.086	20.073	2.222	0.147
46.999	110.039	79.981	19.993	100.093	20.074	2.167	0.178
47.499	110.089	79.981	19.993	100.101	20.069	2.459	0.181
47.999	110.164	79.982	19.993	100.106	20.066	2.652	0.144
48.499	110.286	79.982	19.994	100.108	20.070	2.412	0.162
48.999	110.362	79.983	19.993	100.108	20.071	2.309	0.198
49.499	110.454	79.981	19.993	100.108	20.070	2.395	0.183
49.999	110.541	79.982	19.993	100.108	20.067	2.611	0.173
50.499	110.632	79.982	19.993	100.108	20.066	2.680	0.178
50.999	110.713	79.982	19.993	100.107	20.066	2.687	0.175
51.499	110.811	79.982	19.994	100.107	20.066	2.656	0.175
51.999	110.922	79.983	19.993	100.107	20.066	2.640	0.194
52.499	110.993	79.982	19.993	100.107	20.067	2.618	0.196
52.999	111.134	79.982	19.994	100.107	20.066	2.661	0.197
53.499	111.214	79.983	19.993	100.107	20.065	2.732	0.217
53.999	111.335	79.982	19.993	100.107	20.065	2.747	0.211
54.499	111.404	79.983	19.994	100.107	20.065	2.696	0.195
54.999	111.517	79.983	19.993	100.107	20.065	2.740	0.186
55.499	111.638	79.983	19.993	100.107	20.064	2.775	0.208
55.999	111.721	79.984	19.994	100.107	20.065	2.699	0.219
56.499	111.875	79.983	19.992	100.106	20.064	2.782	0.220
56.999	111.972	79.983	19.993	100.106	20.067	2.571	0.244
57.499	112.072	79.984	19.993	100.105	20.066	2.640	0.224
57.999	112.181	79.983	19.993	100.105	20.064	2.785	0.203
58.499	112.305	79.984	19.993	100.105	20.065	2.737	0.221
58.999	112.463	79.984	19.993	100.105	20.064	2.784	0.258
59.499	112.553	79.983	19.993	100.105	20.063	2.870	0.265
60.000	112.666	79.981	19.993	100.106	20.065	2.720	0.226
60.500	112.817	79.983	19.992	100.107	20.064	2.785	0.233
60.999	112.902	79.983	19.992	100.108	20.066	2.673	0.250
61.499	113.047	79.982	19.992	100.108	20.065	2.751	0.233
61.999	113.161	79.982	19.992	100.108	20.068	2.549	0.244
62.499	113.292	79.984	19.992	100.108	20.065	2.747	0.252
62.999	113.449	79.983	19.992	100.109	20.067	2.623	0.266
63.499	113.538	79.984	19.992	100.108	20.063	2.849	0.267
63.999	113.683	79.982	19.992	100.109	20.065	2.749	0.240
64.499	113.806	79.982	19.992	100.109	20.067	2.623	0.251
64.999	113.910	79.981	19.991	100.110	20.068	2.559	0.248
65.499	114.096	79.980	19.991	100.109	20.069	2.449	0.259
65.999	114.169	79.982	19.992	100.109	20.066	2.661	0.275
66.499	114.301	79.982	19.992	100.109	20.069	2.468	0.232
66.999	114.476	79.981	19.992	100.110	20.067	2.611	0.256
67.499	114.574	79.982	19.992	100.110	20.066	2.633	0.290
67.999	114.728	79.983	19.991	100.111	20.065	2.718	0.262
68.499	114.885	79.981	19.992	100.112	20.069	2.468	0.282
68.999	114.991	79.982	19.992	100.111	20.068	2.523	0.287
69.499	115.131	79.981	19.993	100.111	20.068	2.537	0.254
69.999	115.269	79.981	19.992	100.111	20.072	2.255	0.262
70.500	115.433	79.981	19.993	100.112	20.066	2.627	0.290
71.000	115.564	79.983	19.992	100.112	20.064	2.797	0.298
71.499	115.722	79.983	19.992	100.113	20.063	2.848	0.292
71.999	115.824	79.982	19.992	100.113	20.066	2.646	0.275
72.499	115.993	79.982	19.993	100.112	20.066	2.675	0.265
72.999	116.161	79.982	19.991	100.109	20.065	2.744	0.303
73.499	116.265	79.981	19.992	100.109	20.066	2.682	0.304
73.999	116.437	79.982	19.992	100.109	20.065	2.692	0.274
74.499	116.579	79.982	19.992	100.109	20.069	2.483	0.295
74.999	116.756	79.981	19.992	100.110	20.063	2.873	0.316
75.499	116.876	79.981	19.992	100.112	20.065	2.739	0.308
75.999	117.060	79.981	19.992	100.111	20.066	2.652	0.301
76.499	117.209	79.982	19.993	100.110	20.066	2.675	0.319
76.999	117.345	79.981	19.991	100.110	20.064	2.811	0.309
77.499	117.508	79.980	19.992	100.111	20.067	2.621	0.292
77.999	117.671	79.981	19.992	100.111	20.064	2.787	0.312
78.500	117.790	79.982	19.992	100.112	20.064	2.772	0.304
79.001	117.951	79.980	19.992	100.111	20.067	2.590	0.281
79.500	118.132	79.980	19.992	100.111	20.066	2.677	0.311
79.999	118.267	79.981	19.993	100.110	20.063	2.822	0.328
80.499	118.433	79.982	19.992	100.110	20.064	2.791	0.309
80.999	118.613	79.982	19.992	100.110	20.063	2.863	0.324
81.500	118.740	79.981	19.992	100.111	20.063	2.854	0.327
82.001	118.893	79.981	19.992	100.112	20.061	2.974	0.293
82.501	119.077	79.982	19.992	100.112	20.064	2.801	0.308
83.001	119.235	79.982	19.992	100.113	20.064	2.763	0.340
83.500	119.383	79.983	19.992	100.113	20.063	2.863	0.324
83.999	119.564	79.981	19.993	100.113	20.064	2.778	0.318
84.499	119.701	79.981	19.993	100.113	20.063	2.868	0.323
84.999	119.878	79.981	19.991	100.111	20.063	2.879	0.315
85.499	120.045	79.981	19.992	100.112	20.064	2.799	0.329
85.999	120.190	79.980	19.992	100.112	20.063	2.824	0.328
86.499	120.353	79.981	19.992	100.111	20.062	2.910	0.310
86.999	120.487	79.982	19.992	100.112	20.065	2.701	0.302
87.499	120.653	79.981	19.992	100.114	20.065	2.730	0.299
87.999	120.823	79.982	19.993	100.115	20.065	2.718	0.318
88.500	121.035	79.982	19.993	100.115	20.063	2.832	0.359
89.000	121.187	79.981	19.992	100.115	20.066	2.678	0.373
89.500	121.346	79.982	19.992	100.116	20.064	2.756	0.338
90.000	121.555	79.983	19.992	100.116	20.064	2.761	0.340
90.499	121.697	79.980	19.993	100.114	20.063	2.856	0.360
90.999	121.860	79.982	19.992	100.113	20.062	2.900	0.328
91.499	122.026	79.982	19.991	100.112	20.064	2.803	0.317
91.999	122.207	79.981	19.993	100.111	20.062	2.908	0.338
92.499	122.404	79.982	19.992	100.110	20.065	2.741	0.362
92.999	122.560	79.981	19.992	100.109	20.063	2.853	0.366
93.499	122.742	79.981	19.992	100.110	20.061	3.005	0.346
94.000	122.885	79.980	19.992	100.110	20.065	2.729	0.331
94.500	123.098	79.981	19.993	100.110	20.059	3.073	0.340
94.999	123.208	79.982	19.992	100.110	20.063	2.822	0.339
95.499	123.402	79.983	19.992	100.112	20.062	2.905	0.314
95.999	123.586	79.982	19.993	100.115	20.061	2.949	0.341
96.499	123.796	79.981	19.992	100.119	20.060	3.054	0.386
96.999	123.947	79.981	19.991	100.123	20.058	3.159	0.377
97.499	124.100	79.981	19.991	100.125	20.061	2.983	0.333
97.999	124.266	79.981	19.993	100.124	20.063	2.826	0.312
98.499	124.507	79.982	19.992	100.121	20.064	2.810	0.362
98.999	124.647	79.981	19.992	100.118	20.062	2.894	0.394
99.499	124.839	79.981	19.993	100.115	20.062	2.936	0.357
99.999	125.036	79.982	19.992	100.115	20.059	3.076	0.361
100.499	125.205	79.982	19.992	100.116	20.061	2.969	0.378
100.999	125.411	79.981	19.992	100.116	20.063	2.864	0.370
101.500	125.583	79.981	19.992	100.118	20.061	2.980	0.376
102.000	125.776	79.981	19.993	100.119	20.065	2.700	0.372
102.499	125.944	79.982	19.992	100.117	20.060	3.028	0.363
102.999	126.123	79.981	19.994	100.116	20.060	3.026	0.353
103.499	126.305	79.982	19.992	100.117	20.058	3.137	0.354
103.999	126.485	79.982	19.992	100.119	20.062	2.902	0.362
104.499	126.673	79.982	19.993	100.124	20.064	2.785	0.365
104.999	126.850	79.981	19.992	100.130	20.063	2.821	0.366
105.499	127.046	79.982	19.993	100.135	20.060	3.019	0.369
105.999	127.254	79.981	19.992	100.139	20.060	3.049	0.389
106.499	127.433	79.983	19.992	100.138	20.061	2.997	0.396
106.999	127.648	79.982	19.992	100.138	20.061	2.976	0.390
107.499	127.801	79.983	19.992	100.140	20.062	2.890	0.381
107.999	127.971	79.982	19.993	100.138	20.063	2.871	0.345
108.499	128.163	79.981	19.992	100.136	20.060	3.030	0.343
108.999	128.364	79.983	19.992	100.132	20.065	2.705	0.377
109.499	128.583	79.982	19.993	100.125	20.061	2.945	0.407
110.000	128.742	79.983	19.993	100.121	20.063	2.874	0.400
110.500	128.965	79.983	19.992	100.123	20.062	2.919	0.380
110.999	129.144	79.981	19.993	100.124	20.061	2.963	0.392
111.499	129.337	79.982	19.992	100.130	20.063	2.830	0.387
111.999	129.536	79.982	19.992	100.138	20.061	2.968	0.382
112.499	129.725	79.984	19.992	100.142	20.063	2.850	0.390
112.999	129.930	79.983	19.992	100.143	20.061	3.008	0.391
113.499	130.104	79.983	19.993	100.146	20.063	2.857	0.386
113.999	130.314	79.985	19.993	100.146	20.062	2.944	0.382
114.499	130.516	79.982	19.993	100.146	20.063	2.876	0.399
114.999	130.696	79.982	19.993	100.145	20.060	3.033	0.397
115.499	130.909	79.983	19.993	100.144	20.060	3.065	0.387
115.999	131.158	79.983	19.994	100.143	20.059	3.094	0.427
116.499	131.312	79.982	19.993	100.143	20.060	3.011	0.433
116.999	131.529	79.982	19.993	100.144	20.061	3.004	0.387
117.500	131.724	79.982	19.993	100.144	20.062	2.883	0.391
118.000	131.939	79.982	19.992	100.145	20.059	3.085	0.411
118.500	132.130	79.982	19.993	100.146	20.061	2.999	0.408
119.000	132.356	79.983	19.994	100.146	20.059	3.092	0.411
119.499	132.548	79.982	19.992	100.144	20.060	3.070	0.417
119.999	132.749	79.982	19.992	100.145	20.060	3.042	0.406
120.499	132.957	79.981	19.993	100.145	20.056	3.268	0.401
120.999	133.158	79.982	19.992	100.145	20.060	3.063	0.409
121.499	133.365	79.982	19.993	100.145	20.059	3.118	0.409
121.999	133.602	79.982	19.993	100.148	20.060	3.047	0.427
122.499	133.781	79.982	19.992	100.148	20.060	3.020	0.430
122.999	134.026	79.983	19.992	100.147	20.059	3.097	0.420
123.499	134.224	79.982	19.993	100.148	20.057	3.236	0.433
123.999	134.429	79.983	19.993	100.148	20.058	3.158	0.423
124.499	134.621	79.982	19.993	100.147	20.059	3.090	0.400
125.000	134.847	79.982	19.993	100.148	20.058	3.199	0.407
125.501	135.057	79.982	19.993	100.148	20.057	3.248	0.427
126.000	135.264	79.982	19.992	100.148	20.058	3.194	0.427
126.499	135.486	79.984	19.993	100.148	20.058	3.196	0.423
126.999	135.706	79.982	19.992	100.148	20.056	3.263	0.436
127.499	135.886	79.982	19.993	100.148	20.057	3.256	0.421
127.999	136.121	79.983	19.992	100.148	20.055	3.355	0.407
128.500	136.322	79.983	19.992	100.149	20.054	3.434	0.425
129.000	136.552	79.982	19.992	100.150	20.056	3.324	0.433
129.500	136.770	79.981	19.992	100.150	20.056	3.263	0.439
130.000	136.983	79.984	19.993	100.150	20.055	3.357	0.439
130.500	137.225	79.982	19.992	100.150	20.057	3.236	0.443
131.000	137.438	79.982	19.992	100.151	20.055	3.337	0.455
131.500	137.645	79.983	19.992	100.151	20.056	3.279	0.438
132.000	137.866	79.984	19.993	100.151	20.054	3.445	0.424
132.500	138.062	79.983	19.992	100.151	20.055	3.329	0.423
133.000	138.300	79.982	19.992	100.151	20.051	3.591	0.426
133.500	138.503	79.983	19.992	100.150	20.055	3.374	0.438
134.000	138.741	79.984	19.992	100.150	20.057	3.255	0.441
134.500	138.953	79.983	19.993	100.149	20.057	3.246	0.446
135.000	139.169	79.983	19.993	100.150	20.053	3.493	0.439
135.500	139.390	79.984	19.992	100.149	20.056	3.303	0.432
136.000	139.642	79.982	19.993	100.149	20.055	3.358	0.455
136.500	139.856	79.985	19.993	100.149	20.055	3.374	0.470
137.000	140.067	79.984	19.992	100.149	20.055	3.348	0.446
137.500	140.310	79.984	19.993	100.149	20.054	3.417	0.440
138.000	140.489	79.983	19.993	100.149	20.054	3.453	0.438
138.500	140.756	79.983	19.993	100.149	20.052	3.581	0.434
139.000	140.952	79.983	19.993	100.148	20.055	3.353	0.455
139.500	141.209	79.982	19.992	100.150	20.057	3.251	0.459
140.000	141.415	79.981	19.993	100.150	20.056	3.270	0.458
140.500	141.663	79.984	19.993	100.150	20.055	3.355	0.458
141.000	141.851	79.982	19.993	100.150	20.055	3.358	0.445
141.500	142.111	79.981	19.992	100.151	20.054	3.433	0.442
142.000	142.340	79.982	19.993	100.148	20.054	3.424	0.468
142.500	142.561	79.982	19.993	100.148	20.053	3.479	0.469
143.000	142.814	79.982	19.992	100.148	20.051	3.626	0.462
143.500	143.003	79.981	19.993	100.148	20.057	3.248	0.458
144.000	143.286	79.982	19.993	100.147	20.057	3.211	0.457
144.500	143.500	79.980	19.994	100.148	20.058	3.178	0.485
145.000	143.739	79.982	19.992	100.148	20.058	3.168	0.475
145.500	143.961	79.980	19.993	100.147	20.056	3.277	0.457
146.000	144.206	79.980	19.993	100.147	20.054	3.393	0.464
146.500	144.435	79.981	19.993	100.148	20.057	3.206	0.470
147.000	144.661	79.981	19.993	100.148	20.055	3.344	0.464
147.500	144.870	79.981	19.993	100.149	20.056	3.319	0.446
148.000	145.111	79.979	19.993	100.150	20.057	3.248	0.442
148.500	145.383	79.981	19.994	100.151	20.056	3.317	0.481
149.000	145.621	79.982	19.992	100.151	20.055	3.353	0.511
149.500	145.826	79.981	19.993	100.151	20.053	3.515	0.477
150.000	146.085	79.981	19.993	100.151	20.054	3.434	0.453
150.501	146.341	79.979	19.991	100.151	20.055	3.377	0.489
151.001	146.554	79.981	19.993	100.151	20.054	3.424	0.492
151.500	146.790	79.981	19.992	100.151	20.056	3.298	0.459
152.000	147.005	79.981	19.993	100.152	20.057	3.239	0.450
152.500	147.262	79.981	19.993	100.151	20.056	3.294	0.462
153.000	147.505	79.981	19.993	100.151	20.056	3.296	0.486
153.500	147.755	79.981	19.991	100.150	20.059	3.116	0.497
154.000	147.988	79.982	19.993	100.150	20.055	3.365	0.488
154.500	148.243	79.981	19.992	100.149	20.056	3.298	0.485
155.000	148.481	79.981	19.992	100.149	20.056	3.296	0.490
155.500	148.711	79.980	19.992	100.146	20.056	3.287	0.481
156.000	148.991	79.981	19.992	100.144	20.059	3.134	0.489
156.500	149.181	79.981	19.992	100.144	20.059	3.135	0.490
157.000	149.482	79.980	19.992	100.145	20.059	3.083	0.480
157.500	149.737	79.980	19.991	100.145	20.058	3.139	0.524
158.000	149.981	79.980	19.992	100.149	20.058	3.180	0.528
158.500	150.206	79.982	19.992	100.151	20.057	3.222	0.484
159.000	150.462	79.980	19.992	100.150	20.058	3.189	0.475
159.500	150.675	79.980	19.993	100.150	20.057	3.232	0.475
160.000	150.924	79.981	19.993	100.149	20.055	3.375	0.466
160.500	151.178	79.980	19.993	100.148	20.055	3.356	0.483
161.000	151.437	79.980	19.992	100.148	20.057	3.246	0.507
161.500	151.657	79.981	19.992	100.146	20.056	3.324	0.496
162.000	151.896	79.982	19.993	100.145	20.054	3.398	0.469
162.500	152.177	79.980	19.993	100.145	20.057	3.236	0.490
163.000	152.434	79.981	19.992	100.145	20.059	3.102	0.529
163.500	152.627	79.980	19.992	100.145	20.053	3.476	0.494
164.000	152.880	79.982	19.992	100.147	20.055	3.329	0.448
164.500	153.137	79.981	19.992	100.147	20.054	3.393	0.478
165.000	153.368	79.981	19.992	100.147	20.056	3.270	0.499
165.500	153.619	79.982	19.993	100.147	20.054	3.391	0.485
166.000	153.850	79.981	19.992	100.147	20.056	3.289	0.482
166.500	154.115	79.980	19.993	100.147	20.054	3.439	0.489
167.000	154.337	79.982	19.993	100.144	20.056	3.325	0.491
167.500	154.610	79.982	19.994	100.145	20.055	3.375	0.491
168.000	154.860	79.980	19.992	100.146	20.055	3.367	0.509
168.500	155.113	79.982	19.993	100.146	20.054	3.413	0.513
169.000	155.360	79.981	19.993	100.147	20.054	3.400	0.501
169.500	155.604	79.983	19.991	100.149	20.054	3.446	0.496
170.000	155.876	79.981	19.993	100.148	20.056	3.306	0.504
170.500	156.095	79.981	19.992	100.148	20.054	3.445	0.503
171.000	156.374	79.981	19.992	100.146	20.052	3.529	0.494
171.500	156.614	79.981	19.992	100.145	20.056	3.301	0.508
172.000	156.847	79.982	19.993	100.145	20.056	3.284	0.496
172.500	157.089	79.983	19.992	100.146	20.055	3.377	0.474
173.000	157.411	79.981	19.992	100.146	20.056	3.282	0.520
