Sample ID:	C:\MCC\MCC Cal\Countertop_Plastic_LaminateA_MCC_30K_min_211103_R2.txt
Sample Weight (mg):	4.49
Heating Rate (C/s):	0.5
Combustor Temp (C):	900
N2 Flow Rate (cc/min):	80
O2 Flow Rate (cc/min):	20
Calibration File:	C:\MCC\MCC Cal\Coeff1 JN10440_30_210304.txt.txt
T Correction Coefficients:	0	1.024463	0
Time Shift (s):	14
*
Time (s)	Temperature (C)	N2 flow rate (cc/min)	O2 flow rate (cc/min)	Flow Rate (cc/min)	Oxygen (%)	HRR (W/g)	Heating rate (C/s)
0.000	108.549	80.002	19.994	103.059	20.057	0.023	-0.019
0.500	108.523	80.007	19.996	103.053	20.061	-0.254	-0.004
1.000	108.555	79.998	20.001	103.050	20.065	-0.565	0.005
1.500	108.574	80.011	19.993	103.046	20.063	-0.380	0.029
2.000	108.567	80.004	19.995	103.039	20.063	-0.409	0.032
2.500	108.539	80.013	19.996	103.031	20.062	-0.305	-0.011
3.000	108.513	79.994	19.996	103.022	20.061	-0.289	-0.044
3.500	108.523	80.016	19.992	103.023	20.056	0.074	-0.035
4.000	108.527	80.008	20.001	103.035	20.061	-0.279	-0.001
4.500	108.554	80.004	19.998	103.041	20.063	-0.404	0.022
5.000	108.553	80.013	19.988	103.053	20.060	-0.204	0.028
5.500	108.521	79.998	19.993	103.063	20.059	-0.118	-0.004
6.000	108.524	79.997	19.991	103.062	20.061	-0.239	-0.031
6.500	108.506	80.011	19.994	103.055	20.061	-0.287	-0.022
7.000	108.523	80.012	19.995	103.058	20.061	-0.272	-0.008
7.500	108.523	80.003	19.993	103.066	20.062	-0.318	0.007
8.000	108.500	79.999	19.994	103.072	20.058	-0.080	-0.003
8.500	108.492	80.003	19.996	103.073	20.057	0.025	-0.027
9.000	108.495	80.004	19.996	103.069	20.061	-0.291	-0.018
9.500	108.482	80.001	19.997	103.060	20.061	-0.268	-0.007
10.000	108.516	80.006	19.996	103.045	20.060	-0.179	0.005
10.500	108.476	80.008	19.999	103.034	20.059	-0.159	0.008
11.000	108.499	80.012	19.995	103.032	20.065	-0.524	-0.011
11.500	108.481	80.016	19.995	103.024	20.059	-0.126	-0.006
12.000	108.487	80.008	19.996	103.016	20.064	-0.509	-0.004
12.500	108.511	79.997	19.996	103.013	20.063	-0.417	0.009
13.000	108.478	80.013	19.997	103.010	20.060	-0.188	0.010
13.500	108.542	80.008	19.995	103.006	20.064	-0.485	0.011
14.000	108.490	79.990	19.997	103.008	20.060	-0.231	0.022
14.500	108.549	80.004	19.994	103.009	20.066	-0.625	0.010
15.001	108.521	80.002	19.995	103.011	20.063	-0.433	0.019
15.501	108.503	80.005	19.994	103.013	20.062	-0.309	-0.008
16.000	108.504	80.007	19.993	103.013	20.063	-0.384	-0.032
16.500	108.510	80.006	19.993	103.015	20.064	-0.454	-0.005
17.000	108.477	80.011	19.996	103.023	20.063	-0.425	-0.010
17.500	108.444	80.008	19.996	103.023	20.062	-0.355	-0.046
18.000	108.462	80.001	19.996	103.026	20.063	-0.410	-0.040
18.500	108.450	80.002	19.993	103.030	20.059	-0.107	-0.004
19.000	108.508	80.014	19.986	103.044	20.058	-0.058	0.026
19.500	108.510	80.010	19.997	103.058	20.064	-0.510	0.053
20.000	108.478	80.007	19.994	103.068	20.064	-0.477	0.015
20.500	108.475	80.006	19.995	103.074	20.064	-0.460	-0.032
21.000	108.477	80.002	19.995	103.078	20.058	-0.074	-0.018
21.500	108.496	80.000	19.992	103.071	20.061	-0.303	0.010
22.000	108.466	80.001	19.997	103.061	20.069	-0.875	0.005
22.500	108.451	80.007	19.995	103.048	20.062	-0.367	-0.028
23.000	108.488	80.013	19.998	103.037	20.066	-0.619	-0.012
23.500	108.465	80.012	19.997	103.030	20.063	-0.437	0.017
24.000	108.462	79.999	19.996	103.020	20.067	-0.681	-0.006
24.500	108.481	80.003	19.993	103.013	20.068	-0.741	-0.005
25.000	108.453	80.006	19.995	103.016	20.068	-0.751	0.003
25.500	108.470	80.006	20.002	103.019	20.067	-0.732	-0.010
26.000	108.458	80.005	19.989	103.019	20.066	-0.631	-0.003
26.500	108.473	80.003	19.994	103.026	20.065	-0.538	0.004
27.000	108.465	79.999	19.996	103.035	20.068	-0.734	0.006
27.500	108.444	80.000	19.994	103.037	20.070	-0.877	-0.011
28.000	108.481	80.014	19.992	103.038	20.068	-0.751	-0.007
28.500	108.477	80.010	19.994	103.041	20.069	-0.872	0.024
29.000	108.498	80.007	19.993	103.033	20.069	-0.852	0.025
29.500	108.449	80.005	19.994	103.028	20.069	-0.852	-0.006
30.000	108.447	80.002	19.992	103.026	20.072	-1.037	-0.040
30.500	108.472	80.004	19.994	103.027	20.068	-0.742	-0.014
31.000	108.463	80.004	19.994	103.029	20.060	-0.161	0.020
31.500	108.447	80.006	19.995	103.033	20.066	-0.652	-0.005
32.000	108.489	80.011	19.993	103.032	20.064	-0.493	0.001
32.500	108.467	80.014	19.993	103.035	20.068	-0.742	0.023
33.000	108.441	79.996	19.996	103.040	20.063	-0.394	-0.014
33.500	108.463	80.010	19.994	103.036	20.064	-0.517	-0.026
34.000	108.491	79.995	19.995	103.035	20.066	-0.621	0.023
34.500	108.462	80.002	19.998	103.038	20.067	-0.664	0.025
35.000	108.483	80.003	19.995	103.034	20.068	-0.765	-0.005
35.500	108.475	80.006	19.995	103.032	20.070	-0.901	0.003
36.000	108.527	80.006	19.995	103.039	20.062	-0.330	0.028
36.500	108.492	80.004	19.995	103.043	20.066	-0.616	0.031
37.000	108.518	80.002	19.995	103.044	20.065	-0.579	0.004
37.500	108.479	79.995	19.996	103.047	20.066	-0.622	-0.011
38.000	108.523	80.010	19.994	103.043	20.066	-0.598	-0.004
38.500	108.528	80.007	19.995	103.041	20.064	-0.480	0.027
39.000	108.508	80.009	19.994	103.039	20.067	-0.719	0.017
39.500	108.525	79.997	19.997	103.044	20.064	-0.499	-0.009
40.001	108.531	79.998	19.996	103.045	20.062	-0.319	0.010
40.501	108.502	80.002	19.996	103.051	20.059	-0.119	0.000
41.000	108.540	80.003	19.996	103.051	20.065	-0.523	-0.007
41.500	108.553	80.005	19.996	103.055	20.064	-0.476	0.030
42.000	108.591	80.008	19.996	103.053	20.060	-0.218	0.051
42.500	108.563	80.011	19.995	103.059	20.064	-0.495	0.031
43.000	108.570	80.004	19.997	103.063	20.064	-0.513	-0.005
43.500	108.559	80.007	19.994	103.069	20.057	0.027	-0.013
44.000	108.560	80.000	19.995	103.074	20.061	-0.264	-0.007
44.500	108.552	79.998	19.996	103.082	20.063	-0.412	-0.009
45.000	108.585	80.004	19.995	103.087	20.056	0.087	0.009
45.500	108.595	80.007	19.998	103.093	20.055	0.157	0.034
46.000	108.581	80.004	19.992	103.103	20.053	0.332	0.019
46.500	108.603	80.004	19.998	103.114	20.050	0.515	0.002
47.000	108.657	80.006	19.994	103.121	20.051	0.416	0.042
47.501	108.660	80.002	19.995	103.129	20.050	0.509	0.066
48.001	108.690	80.002	20.001	103.134	20.052	0.373	0.045
48.501	108.749	80.005	19.994	103.133	20.054	0.233	0.061
49.000	108.750	80.007	19.995	103.134	20.048	0.653	0.074
49.500	108.760	80.006	19.996	103.135	20.051	0.474	0.036
50.000	108.795	80.002	19.998	103.136	20.048	0.686	0.028
50.500	108.802	80.004	19.997	103.134	20.056	0.076	0.043
51.000	108.864	80.002	19.994	103.131	20.049	0.589	0.055
51.500	108.902	80.025	19.991	103.127	20.051	0.443	0.084
52.000	108.901	80.007	19.997	103.129	20.049	0.612	0.069
52.500	108.941	80.001	19.991	103.124	20.052	0.383	0.038
53.000	108.928	80.007	19.995	103.126	20.054	0.260	0.033
53.500	108.998	80.010	20.000	103.122	20.052	0.393	0.043
54.000	109.017	79.992	19.996	103.119	20.046	0.834	0.073
54.500	109.078	80.013	19.992	103.115	20.047	0.729	0.084
55.000	109.159	80.008	19.995	103.122	20.048	0.682	0.111
55.500	109.160	79.999	19.994	103.124	20.048	0.671	0.112
56.000	109.190	80.010	19.993	103.134	20.048	0.667	0.057
56.500	109.256	80.020	19.995	103.146	20.053	0.292	0.063
57.000	109.299	80.004	19.992	103.159	20.050	0.507	0.102
57.500	109.290	79.998	19.995	103.167	20.049	0.583	0.072
58.000	109.371	80.004	19.988	103.181	20.046	0.830	0.053
58.500	109.403	80.019	19.998	103.190	20.048	0.640	0.093
59.001	109.464	79.997	19.996	103.193	20.048	0.700	0.103
59.501	109.502	80.023	19.988	103.188	20.044	0.959	0.096
60.001	109.526	80.007	19.991	103.186	20.046	0.789	0.080
60.500	109.589	80.004	19.994	103.179	20.047	0.768	0.075
61.000	109.651	80.020	19.992	103.170	20.043	1.050	0.106
61.500	109.681	80.008	19.992	103.166	20.043	1.033	0.108
62.000	109.724	80.012	20.001	103.164	20.039	1.289	0.082
62.501	109.787	80.003	19.996	103.160	20.039	1.285	0.090
63.001	109.861	80.004	19.993	103.162	20.043	1.048	0.121
63.501	109.921	80.014	19.991	103.172	20.040	1.247	0.135
64.000	109.945	79.994	19.994	103.176	20.039	1.328	0.109
64.500	110.044	80.016	19.992	103.180	20.043	1.029	0.104
65.000	110.100	80.016	19.994	103.186	20.039	1.289	0.139
65.500	110.157	80.015	19.993	103.187	20.039	1.324	0.134
66.000	110.227	80.000	19.996	103.186	20.039	1.313	0.120
66.500	110.273	80.004	19.996	103.181	20.036	1.521	0.122
67.000	110.356	80.017	19.996	103.182	20.038	1.402	0.123
67.500	110.410	80.018	19.990	103.181	20.038	1.396	0.133
68.000	110.478	80.004	19.993	103.185	20.030	1.923	0.129
68.500	110.542	80.013	19.991	103.183	20.031	1.855	0.127
69.000	110.641	80.009	19.993	103.193	20.034	1.649	0.148
69.500	110.697	80.010	19.991	103.202	20.032	1.793	0.159
70.000	110.742	80.007	19.994	103.204	20.033	1.725	0.128
70.500	110.825	79.994	19.995	103.205	20.028	2.094	0.115
71.000	110.913	80.009	19.995	103.208	20.031	1.894	0.150
71.500	110.989	80.006	19.985	103.208	20.031	1.904	0.168
72.000	111.085	80.007	19.992	103.210	20.033	1.712	0.168
72.500	111.137	79.997	19.993	103.217	20.033	1.722	0.159
73.000	111.257	80.007	19.998	103.220	20.028	2.074	0.160
73.500	111.321	80.003	19.992	103.225	20.028	2.095	0.178
74.000	111.437	80.015	19.994	103.227	20.030	1.988	0.182
74.500	111.526	80.016	19.993	103.228	20.025	2.315	0.193
75.000	111.608	80.011	19.994	103.226	20.033	1.776	0.188
75.500	111.689	80.009	19.994	103.226	20.025	2.324	0.167
76.000	111.763	80.006	19.994	103.226	20.026	2.217	0.159
76.500	111.893	80.000	19.996	103.225	20.028	2.103	0.180
77.000	111.976	80.010	19.992	103.226	20.028	2.089	0.209
77.500	112.092	80.008	19.994	103.226	20.032	1.819	0.206
78.001	112.154	80.007	19.994	103.230	20.024	2.366	0.188
78.501	112.281	80.007	19.995	103.230	20.025	2.346	0.183
79.000	112.351	80.006	19.995	103.230	20.025	2.344	0.193
79.500	112.496	80.008	19.993	103.228	20.031	1.905	0.206
80.000	112.544	80.010	19.995	103.228	20.030	1.967	0.204
80.500	112.681	80.009	19.993	103.223	20.029	2.045	0.189
81.000	112.783	80.008	19.995	103.222	20.025	2.329	0.212
81.500	112.888	80.008	19.991	103.223	20.024	2.360	0.223
82.000	112.992	80.003	19.993	103.229	20.027	2.206	0.208
82.500	113.144	80.007	19.993	103.237	20.025	2.331	0.233
83.000	113.239	80.008	19.993	103.244	20.022	2.521	0.252
83.500	113.365	80.012	19.994	103.253	20.022	2.566	0.234
84.000	113.488	80.009	19.995	103.264	20.023	2.446	0.235
84.500	113.575	80.014	19.992	103.264	20.022	2.554	0.230
85.000	113.747	80.012	19.991	103.262	20.022	2.558	0.234
85.500	113.834	80.008	19.993	103.261	20.021	2.603	0.259
86.000	113.964	80.006	19.995	103.256	20.022	2.506	0.239
86.500	114.090	80.016	19.993	103.246	20.021	2.583	0.237
87.000	114.239	80.018	19.993	103.248	20.021	2.580	0.265
87.500	114.370	80.013	19.992	103.249	20.025	2.290	0.277
88.000	114.457	80.005	19.995	103.252	20.019	2.780	0.249
88.500	114.599	80.011	19.995	103.253	20.019	2.712	0.223
89.000	114.763	80.013	19.992	103.257	20.025	2.342	0.267
89.500	114.863	80.009	19.994	103.261	20.022	2.523	0.285
90.000	115.007	80.012	19.994	103.261	20.025	2.350	0.254
90.500	115.107	80.011	19.993	103.259	20.019	2.759	0.244
91.000	115.291	80.007	19.994	103.262	20.023	2.444	0.264
91.500	115.429	80.008	19.995	103.262	20.022	2.498	0.303
92.001	115.538	80.018	19.993	103.258	20.023	2.455	0.284
92.501	115.712	80.004	19.995	103.262	20.024	2.395	0.265
93.001	115.843	80.006	19.994	103.266	20.023	2.445	0.294
93.501	116.013	80.017	19.994	103.268	20.022	2.553	0.303
94.000	116.159	80.012	19.994	103.271	20.023	2.467	0.308
94.500	116.223	80.003	19.995	103.272	20.023	2.486	0.263
95.000	116.391	80.009	19.994	103.267	20.025	2.345	0.221
95.501	116.590	79.999	19.994	103.262	20.024	2.383	0.300
96.001	116.728	80.007	19.992	103.259	20.019	2.737	0.352
96.500	116.853	80.010	19.993	103.258	20.025	2.344	0.299
97.000	116.963	80.002	19.995	103.257	20.023	2.434	0.249
97.500	117.154	80.011	19.995	103.258	20.024	2.391	0.268
98.000	117.321	80.011	19.992	103.260	20.030	1.977	0.329
98.500	117.485	80.007	19.994	103.263	20.023	2.430	0.344
99.000	117.606	80.006	19.994	103.263	20.028	2.115	0.309
99.500	117.792	80.008	19.994	103.264	20.026	2.240	0.296
100.000	117.952	80.008	19.994	103.266	20.022	2.518	0.326
100.500	118.096	80.008	19.995	103.271	20.022	2.562	0.325
101.000	118.278	80.007	19.995	103.270	20.024	2.379	0.315
101.500	118.436	80.010	19.995	103.268	20.024	2.360	0.333
102.001	118.594	80.010	19.994	103.268	20.021	2.632	0.328
102.501	118.750	80.007	19.996	103.267	20.023	2.485	0.315
103.000	118.912	80.007	19.994	103.261	20.016	2.930	0.315
103.500	119.081	80.002	19.996	103.260	20.018	2.788	0.324
104.000	119.252	80.008	19.996	103.265	20.017	2.870	0.336
104.500	119.414	80.006	19.994	103.268	20.019	2.776	0.337
105.000	119.599	80.006	19.995	103.269	20.018	2.821	0.340
105.500	119.760	80.005	19.995	103.272	20.024	2.422	0.347
106.000	119.935	80.005	19.996	103.274	20.023	2.448	0.341
106.500	120.154	80.009	19.996	103.273	20.021	2.574	0.364
107.001	120.306	80.006	19.995	103.269	20.020	2.689	0.382
107.501	120.477	80.008	19.994	103.267	20.021	2.607	0.347
108.000	120.629	80.005	19.996	103.267	20.019	2.765	0.323
108.501	120.826	80.007	19.994	103.270	20.016	2.971	0.336
109.001	121.002	80.007	19.996	103.275	20.020	2.673	0.361
109.501	121.187	80.008	19.997	103.279	20.017	2.858	0.367
110.001	121.373	80.006	19.996	103.284	20.018	2.821	0.366
110.501	121.554	80.008	19.994	103.283	20.019	2.740	0.368
111.001	121.731	80.009	19.999	103.277	20.018	2.847	0.362
111.500	121.950	80.009	19.995	103.272	20.019	2.726	0.377
112.000	122.111	80.006	19.997	103.269	20.019	2.772	0.388
112.500	122.273	80.002	20.000	103.266	20.023	2.440	0.351
113.000	122.497	80.010	19.996	103.267	20.018	2.840	0.355
113.500	122.690	80.005	19.997	103.273	20.019	2.718	0.402
114.000	122.889	80.002	19.995	103.274	20.025	2.307	0.405
114.501	123.054	80.007	19.995	103.270	20.021	2.638	0.378
115.001	123.218	80.007	19.995	103.271	20.022	2.533	0.346
115.501	123.431	80.005	19.995	103.268	20.022	2.547	0.353
116.000	123.597	80.007	19.994	103.263	20.024	2.418	0.378
116.500	123.784	80.008	19.995	103.263	20.022	2.531	0.366
117.000	123.968	80.009	19.995	103.270	20.024	2.395	0.362
117.500	124.156	80.007	19.996	103.277	20.024	2.372	0.372
118.000	124.356	80.008	19.996	103.280	20.019	2.741	0.380
118.500	124.573	80.000	19.996	103.283	20.024	2.368	0.402
119.000	124.759	80.012	19.993	103.283	20.025	2.346	0.410
119.500	124.920	80.005	19.995	103.280	20.021	2.591	0.375
120.001	125.107	80.006	19.995	103.275	20.021	2.605	0.348
120.501	125.287	80.008	19.995	103.280	20.020	2.708	0.357
121.001	125.504	80.009	19.993	103.284	20.023	2.488	0.382
121.501	125.708	80.004	19.995	103.283	20.022	2.555	0.409
122.000	125.883	80.006	19.995	103.282	20.020	2.648	0.400
122.500	126.105	80.006	19.994	103.279	20.021	2.578	0.388
123.000	126.310	80.003	19.994	103.271	20.019	2.712	0.412
123.500	126.466	80.006	19.996	103.262	20.027	2.189	0.394
124.000	126.676	80.005	19.994	103.259	20.024	2.358	0.363
124.501	126.871	80.006	19.993	103.257	20.020	2.689	0.386
125.001	127.064	80.006	19.993	103.259	20.019	2.738	0.397
125.500	127.286	80.003	19.995	103.264	20.023	2.458	0.401
126.000	127.473	80.006	19.995	103.266	20.023	2.485	0.412
126.500	127.679	80.003	19.995	103.270	20.022	2.497	0.401
127.000	127.888	80.006	19.995	103.275	20.019	2.757	0.404
127.500	128.101	80.005	19.995	103.275	20.023	2.442	0.418
128.000	128.270	80.005	19.995	103.271	20.021	2.607	0.402
128.500	128.497	80.005	19.995	103.269	20.025	2.280	0.390
129.000	128.723	80.003	19.995	103.266	20.024	2.379	0.425
129.500	128.905	80.005	19.994	103.261	20.020	2.671	0.430
130.000	129.082	80.005	19.995	103.258	20.021	2.582	0.383
130.500	129.340	80.005	19.995	103.258	20.020	2.643	0.397
131.000	129.537	80.004	19.995	103.260	20.021	2.619	0.445
131.500	129.754	80.003	19.996	103.266	20.020	2.672	0.434
132.000	129.984	80.003	19.995	103.268	20.025	2.304	0.430
132.500	130.162	80.005	19.996	103.269	20.022	2.549	0.428
133.000	130.378	80.005	19.994	103.270	20.020	2.691	0.401
133.500	130.590	80.005	19.996	103.268	20.022	2.520	0.410
134.000	130.765	80.003	19.996	103.263	20.025	2.317	0.407
134.500	130.972	80.006	19.995	103.263	20.029	2.022	0.385
135.000	131.169	80.007	19.995	103.267	20.022	2.506	0.394
135.500	131.395	80.003	19.995	103.274	20.025	2.337	0.414
136.000	131.603	80.003	19.994	103.281	20.023	2.452	0.428
136.500	131.802	80.004	19.996	103.288	20.023	2.477	0.420
137.000	132.014	80.008	19.996	103.294	20.019	2.765	0.409
137.500	132.255	80.007	19.995	103.291	20.020	2.674	0.433
138.000	132.434	80.006	19.995	103.283	20.018	2.852	0.437
138.500	132.652	80.007	19.996	103.277	20.024	2.387	0.408
139.000	132.859	80.006	19.994	103.269	20.020	2.691	0.411
139.500	133.086	80.007	19.995	103.267	20.019	2.720	0.429
140.000	133.323	80.006	19.995	103.272	20.018	2.835	0.449
140.500	133.481	80.007	19.996	103.277	20.021	2.580	0.429
141.000	133.735	80.010	19.996	103.283	20.021	2.627	0.403
141.500	133.960	80.007	19.995	103.288	20.018	2.806	0.445
142.000	134.150	80.007	19.996	103.287	20.016	2.973	0.447
142.500	134.393	80.009	19.994	103.286	20.017	2.901	0.424
143.000	134.601	80.008	19.996	103.288	20.019	2.743	0.442
143.500	134.832	80.009	19.995	103.286	20.021	2.590	0.445
144.000	135.001	80.007	19.995	103.286	20.015	3.012	0.419
144.500	135.259	80.008	19.995	103.283	20.019	2.746	0.413
145.000	135.445	80.008	19.995	103.281	20.018	2.827	0.435
145.500	135.701	80.007	19.994	103.278	20.017	2.855	0.443
146.000	135.906	80.007	19.995	103.275	20.019	2.728	0.452
146.500	136.125	80.006	19.995	103.277	20.017	2.897	0.442
147.000	136.333	80.009	19.994	103.281	20.018	2.796	0.426
147.500	136.589	80.007	19.995	103.282	20.015	3.010	0.446
148.000	136.817	80.010	19.995	103.284	20.015	3.059	0.474
148.500	137.047	80.007	19.994	103.282	20.016	2.969	0.471
149.000	137.252	80.005	19.994	103.277	20.020	2.660	0.447
149.500	137.448	80.009	19.993	103.276	20.018	2.815	0.418
150.000	137.702	80.009	19.994	103.278	20.018	2.786	0.425
150.500	137.895	80.008	19.993	103.277	20.016	2.965	0.448
151.000	138.102	80.010	19.994	103.279	20.017	2.915	0.423
151.500	138.347	80.005	19.995	103.281	20.019	2.742	0.426
152.000	138.580	80.007	19.993	103.276	20.018	2.831	0.465
152.500	138.800	80.006	19.993	103.269	20.017	2.922	0.466
153.000	139.023	80.008	19.993	103.268	20.016	2.936	0.448
153.500	139.217	80.007	19.994	103.271	20.022	2.514	0.430
154.000	139.438	80.007	19.995	103.275	20.022	2.537	0.416
154.500	139.700	80.005	19.994	103.281	20.019	2.747	0.449
155.000	139.956	80.008	19.993	103.286	20.018	2.821	0.501
155.500	140.172	80.007	19.993	103.289	20.022	2.563	0.495
156.000	140.395	80.007	19.994	103.286	20.020	2.680	0.455
156.500	140.578	80.005	19.994	103.284	20.023	2.473	0.423
157.000	140.816	80.006	19.994	103.284	20.022	2.551	0.414
157.500	141.032	80.008	19.994	103.284	20.018	2.794	0.437
158.000	141.259	80.007	19.994	103.283	20.015	3.025	0.448
158.500	141.491	80.007	19.995	103.281	20.021	2.617	0.451
159.000	141.760	80.008	19.994	103.280	20.023	2.434	0.480
159.500	141.967	80.008	19.993	103.278	20.023	2.489	0.489
160.000	142.186	80.008	19.995	103.277	20.020	2.689	0.451
160.500	142.418	80.006	19.994	103.275	20.017	2.858	0.438
161.000	142.665	80.008	19.995	103.279	20.024	2.372	0.465
161.500	142.927	80.008	19.994	103.283	20.015	3.053	0.495
162.000	143.135	80.007	19.994	103.284	20.021	2.572	0.490
162.500	143.382	80.010	19.994	103.281	20.023	2.487	0.463
163.000	143.586	80.010	19.994	103.280	20.021	2.623	0.453
163.500	143.839	80.009	19.996	103.277	20.020	2.685	0.454
164.000	144.060	80.008	19.994	103.272	20.018	2.806	0.465
164.500	144.322	80.010	19.995	103.268	20.024	2.374	0.478
165.000	144.544	80.008	19.994	103.272	20.020	2.658	0.484
165.500	144.756	80.009	19.994	103.276	20.022	2.541	0.459
166.000	144.984	80.010	19.994	103.279	20.019	2.718	0.437
166.500	145.216	80.007	19.994	103.284	20.024	2.366	0.450
167.000	145.479	80.008	19.993	103.288	20.024	2.372	0.477
167.500	145.750	80.009	19.995	103.283	20.022	2.510	0.514
168.000	145.959	80.010	19.994	103.276	20.020	2.704	0.507
168.500	146.171	80.008	19.993	103.275	20.022	2.539	0.450
169.000	146.446	80.010	19.994	103.273	20.018	2.825	0.454
169.500	146.689	80.010	19.994	103.270	20.023	2.490	0.502
170.000	146.879	80.008	19.995	103.273	20.022	2.525	0.476
170.500	147.127	80.010	19.995	103.278	20.020	2.646	0.436
171.000	147.350	80.009	19.993	103.279	20.016	2.961	0.455
171.500	147.598	80.007	19.995	103.278	20.020	2.701	0.471
