Sample ID:	C:\MCC\MCC Cal\Test\Homasote_MCC_30K_min_220317_R2.txt
Sample Weight (mg):	4.23
Heating Rate (C/s):	0.5
Combustor Temp (C):	900
N2 Flow Rate (cc/min):	80
O2 Flow Rate (cc/min):	20
Calibration File:	C:\MCC\MCC Cal\Coeff1 JN10440_30_210304.txt.txt
T Correction Coefficients:	0	1.024463	0
Time Shift (s):	14
*
Time (s)	Temperature (C)	N2 flow rate (cc/min)	O2 flow rate (cc/min)	Flow Rate (cc/min)	Oxygen (%)	HRR (W/g)	Heating rate (C/s)
0.000	110.201	80.004	19.993	103.610	19.951	-0.464	-0.005
0.500	110.164	80.002	19.995	103.610	19.949	-0.318	0.028
1.000	110.156	80.002	19.994	103.612	19.951	-0.452	-0.015
1.500	110.161	80.002	19.996	103.614	19.950	-0.384	-0.024
2.000	110.189	80.001	19.998	103.614	19.949	-0.295	0.015
2.501	110.175	80.003	19.993	103.613	19.945	0.002	0.024
3.000	110.192	80.003	19.995	103.612	19.946	-0.102	0.009
3.500	110.155	80.002	19.996	103.612	19.945	-0.034	-0.008
4.000	110.182	80.004	19.996	103.611	19.946	-0.087	-0.015
4.500	110.133	80.008	19.992	103.611	19.946	-0.085	-0.017
5.000	110.149	80.002	19.998	103.613	19.944	0.066	-0.028
5.500	110.173	80.002	19.994	103.613	19.944	0.036	0.004
6.000	110.149	80.005	19.991	103.616	19.939	0.408	0.020
6.500	110.121	80.001	19.995	103.619	19.943	0.138	-0.026
7.000	110.134	80.002	19.993	103.621	19.943	0.093	-0.033
7.500	110.119	80.001	19.995	103.623	19.940	0.325	-0.008
8.000	110.126	80.001	19.993	103.628	19.943	0.113	-0.005
8.500	110.140	80.002	19.993	103.632	19.939	0.465	0.006
9.000	110.111	80.001	19.993	103.636	19.941	0.250	0.003
9.500	110.160	80.002	19.993	103.641	19.942	0.185	0.003
10.000	110.128	80.001	19.994	103.646	19.940	0.367	0.018
10.500	110.143	80.000	19.996	103.649	19.939	0.412	-0.000
11.000	110.154	80.001	19.994	103.652	19.936	0.679	0.004
11.500	110.105	80.001	19.994	103.654	19.939	0.410	-0.006
12.000	110.118	80.001	19.995	103.654	19.935	0.764	-0.037
12.500	110.143	80.001	19.995	103.662	19.934	0.832	0.001
13.000	110.143	80.001	19.994	103.654	19.933	0.919	0.032
13.500	110.171	80.001	19.998	103.629	19.931	1.085	0.027
14.000	110.166	80.002	19.997	103.612	19.929	1.212	0.025
14.500	110.183	80.002	19.997	103.603	19.930	1.159	0.017
15.000	110.186	80.000	19.996	103.596	19.931	1.015	0.016
15.500	110.217	80.001	19.996	103.605	19.927	1.329	0.027
16.000	110.248	80.001	19.995	103.643	19.929	1.225	0.048
16.500	110.249	80.001	19.995	103.712	19.929	1.185	0.047
17.000	110.249	80.002	19.995	103.775	19.924	1.573	0.016
17.500	110.246	80.000	19.995	103.809	19.923	1.637	-0.001
18.000	110.310	80.001	19.996	103.835	19.925	1.499	0.030
18.500	110.306	79.999	19.996	103.849	19.920	1.925	0.061
19.000	110.317	80.000	19.994	103.820	19.918	2.019	0.033
19.500	110.365	80.001	19.995	103.788	19.918	2.038	0.033
20.000	110.338	80.001	19.995	103.777	19.914	2.335	0.040
20.500	110.401	80.002	19.994	103.775	19.913	2.410	0.028
21.000	110.454	80.001	19.996	103.773	19.912	2.531	0.076
21.500	110.455	80.001	19.996	103.775	19.914	2.356	0.085
22.000	110.470	80.002	19.993	103.782	19.910	2.650	0.035
22.500	110.554	80.000	19.994	103.782	19.911	2.584	0.057
23.000	110.595	80.001	19.995	103.780	19.909	2.764	0.112
23.500	110.621	80.001	19.996	103.783	19.908	2.792	0.096
24.000	110.646	80.000	19.994	103.787	19.910	2.671	0.059
24.500	110.699	80.002	19.994	103.787	19.909	2.728	0.064
25.000	110.730	80.001	19.994	103.794	19.911	2.582	0.081
25.500	110.816	80.002	19.996	103.801	19.907	2.856	0.100
26.000	110.849	80.001	19.993	103.805	19.909	2.726	0.118
26.500	110.899	80.003	19.994	103.807	19.906	2.956	0.101
27.001	110.952	80.004	19.994	103.805	19.906	2.932	0.093
27.500	111.030	79.999	19.998	103.800	19.906	2.995	0.117
28.000	111.065	80.002	19.997	103.797	19.907	2.884	0.122
28.500	111.121	80.003	19.992	103.794	19.907	2.852	0.102
29.000	111.202	80.001	19.996	103.790	19.904	3.095	0.114
29.500	111.257	79.999	19.994	103.792	19.908	2.782	0.137
30.000	111.320	80.002	19.991	103.792	19.906	2.990	0.127
30.500	111.376	80.002	19.996	103.793	19.909	2.764	0.119
31.000	111.457	80.001	19.994	103.791	19.909	2.760	0.128
31.500	111.528	80.002	19.994	103.795	19.908	2.777	0.145
32.000	111.559	80.003	19.996	103.796	19.908	2.820	0.127
32.500	111.628	80.001	19.994	103.798	19.908	2.848	0.101
33.000	111.720	80.001	19.995	103.800	19.909	2.712	0.130
33.500	111.792	80.002	19.997	103.804	19.908	2.773	0.163
34.000	111.886	80.002	19.994	103.805	19.908	2.824	0.165
34.500	111.986	80.001	19.994	103.805	19.906	2.960	0.180
35.000	112.037	80.002	19.994	103.809	19.906	2.943	0.172
35.500	112.128	80.001	19.995	103.809	19.906	2.987	0.146
36.000	112.189	80.003	19.993	103.809	19.909	2.718	0.147
36.500	112.260	80.001	19.996	103.808	19.905	3.041	0.142
37.000	112.367	80.002	19.995	103.805	19.906	2.956	0.155
37.500	112.447	80.001	19.993	103.812	19.905	3.024	0.183
38.000	112.560	80.002	19.993	103.800	19.904	3.105	0.190
38.500	112.638	80.002	19.994	103.767	19.905	3.061	0.192
39.000	112.716	80.001	19.994	103.746	19.904	3.094	0.174
39.501	112.816	80.001	19.994	103.738	19.905	3.058	0.167
40.001	112.910	80.002	19.994	103.725	19.905	3.050	0.186
40.501	113.009	80.002	19.994	103.741	19.904	3.084	0.193
41.000	113.107	80.001	19.994	103.813	19.908	2.818	0.195
41.500	113.221	80.002	19.993	103.858	19.908	2.784	0.205
42.000	113.303	80.000	19.995	103.879	19.908	2.842	0.204
42.500	113.399	80.001	19.995	103.890	19.905	3.071	0.187
43.000	113.520	80.002	19.994	103.887	19.904	3.084	0.198
43.500	113.613	80.001	19.995	103.849	19.906	2.971	0.216
44.000	113.738	80.001	19.994	103.826	19.908	2.780	0.216
44.501	113.799	80.000	19.994	103.818	19.905	3.075	0.202
45.001	113.957	80.000	19.993	103.813	19.905	3.045	0.203
45.500	114.046	80.001	19.994	103.813	19.909	2.771	0.233
46.001	114.163	80.000	19.994	103.813	19.906	2.945	0.226
46.501	114.251	80.000	19.995	103.813	19.905	3.026	0.205
47.000	114.370	80.000	19.995	103.816	19.907	2.894	0.206
47.500	114.475	80.001	19.994	103.824	19.904	3.136	0.216
48.000	114.588	80.001	19.994	103.832	19.904	3.132	0.221
48.501	114.694	80.000	19.994	103.839	19.904	3.124	0.218
49.001	114.836	80.000	19.994	103.846	19.904	3.139	0.234
49.500	114.965	80.000	19.994	103.845	19.903	3.207	0.260
50.000	115.049	80.001	19.994	103.840	19.902	3.294	0.242
50.500	115.165	80.002	19.996	103.838	19.903	3.177	0.206
51.000	115.296	80.000	19.996	103.838	19.904	3.103	0.224
51.500	115.403	80.001	19.994	103.839	19.903	3.232	0.243
52.001	115.523	80.000	19.995	103.840	19.903	3.209	0.232
52.501	115.664	80.001	19.995	103.841	19.899	3.476	0.244
53.000	115.753	80.001	19.993	103.840	19.902	3.279	0.246
53.500	115.916	80.001	19.996	103.838	19.901	3.377	0.241
54.000	116.025	80.002	19.995	103.836	19.903	3.216	0.262
54.500	116.198	80.003	19.995	103.839	19.901	3.345	0.277
55.000	116.316	80.002	19.995	103.840	19.901	3.335	0.287
55.500	116.446	80.003	19.994	103.836	19.900	3.424	0.269
56.000	116.537	80.003	19.995	103.831	19.901	3.326	0.234
56.500	116.712	80.001	19.996	103.826	19.900	3.462	0.243
57.000	116.818	80.003	19.995	103.819	19.901	3.330	0.274
57.500	116.946	80.003	19.995	103.817	19.899	3.532	0.258
58.000	117.080	80.003	19.994	103.818	19.900	3.411	0.248
58.500	117.259	80.002	19.994	103.822	19.901	3.379	0.287
59.000	117.369	80.002	19.995	103.829	19.901	3.382	0.301
59.500	117.518	80.003	19.995	103.836	19.898	3.554	0.274
60.000	117.651	80.002	19.994	103.838	19.901	3.324	0.270
60.500	117.800	80.003	19.994	103.840	19.901	3.382	0.282
61.000	117.942	80.001	19.995	103.841	19.896	3.700	0.287
61.500	118.077	80.002	19.994	103.836	19.900	3.437	0.284
62.000	118.228	80.003	19.994	103.829	19.899	3.539	0.281
62.500	118.394	80.002	19.993	103.829	19.897	3.628	0.302
63.000	118.551	80.003	19.994	103.832	19.898	3.575	0.320
63.500	118.652	80.003	19.994	103.832	19.897	3.654	0.290
64.000	118.846	80.003	19.992	103.838	19.898	3.541	0.277
64.500	118.976	80.002	19.993	103.842	19.897	3.643	0.309
65.001	119.063	80.002	19.996	103.845	19.896	3.728	0.271
65.501	119.284	80.001	19.995	103.847	19.897	3.622	0.263
66.001	119.440	80.003	19.994	103.848	19.899	3.464	0.342
66.500	119.535	80.002	19.995	103.848	19.896	3.709	0.314
67.000	119.727	80.002	19.993	103.851	19.899	3.505	0.269
67.500	119.866	80.002	19.993	103.849	19.899	3.537	0.309
68.000	120.042	80.002	19.994	103.848	19.897	3.692	0.323
68.500	120.166	80.002	19.995	103.848	19.897	3.666	0.307
69.000	120.354	80.001	19.994	103.847	19.897	3.660	0.306
69.500	120.539	80.002	19.994	103.848	19.897	3.666	0.343
70.000	120.671	80.002	19.993	103.852	19.895	3.828	0.345
70.500	120.865	80.001	19.994	103.852	19.894	3.853	0.322
71.000	121.007	80.001	19.994	103.853	19.896	3.698	0.332
71.500	121.145	80.003	19.995	103.854	19.898	3.605	0.308
72.000	121.313	80.001	19.996	103.854	19.896	3.726	0.293
72.500	121.529	80.003	19.994	103.854	19.896	3.760	0.345
73.001	121.679	80.001	19.995	103.855	19.894	3.874	0.375
73.501	121.842	80.002	19.994	103.857	19.895	3.804	0.340
74.000	122.020	80.001	19.994	103.860	19.899	3.492	0.327
74.500	122.167	80.002	19.994	103.862	19.896	3.698	0.332
75.000	122.353	80.001	19.994	103.862	19.894	3.915	0.329
75.500	122.536	80.002	19.994	103.862	19.895	3.777	0.351
76.000	122.714	80.003	19.994	103.861	19.895	3.828	0.365
76.500	122.850	80.002	19.993	103.858	19.895	3.809	0.337
77.000	123.055	80.002	19.994	103.856	19.898	3.552	0.328
77.500	123.234	80.003	19.995	103.853	19.895	3.820	0.363
78.000	123.432	80.002	19.996	103.854	19.894	3.885	0.381
78.500	123.598	80.001	19.996	103.853	19.896	3.701	0.371
79.000	123.765	80.002	19.995	103.852	19.893	3.941	0.348
79.501	123.944	80.003	19.995	103.852	19.892	4.032	0.339
80.001	124.102	80.004	19.994	103.855	19.894	3.915	0.342
80.500	124.325	80.003	19.995	103.855	19.894	3.905	0.359
81.000	124.500	80.002	19.995	103.855	19.890	4.158	0.389
81.500	124.633	80.003	19.993	103.860	19.893	3.996	0.352
82.000	124.841	80.003	19.994	103.866	19.893	3.979	0.324
82.500	125.021	80.003	19.995	103.865	19.891	4.087	0.365
83.001	125.206	80.003	19.995	103.863	19.890	4.166	0.377
83.501	125.415	80.002	19.994	103.863	19.891	4.083	0.379
84.001	125.588	80.005	19.994	103.856	19.895	3.798	0.388
84.501	125.764	80.004	19.995	103.850	19.892	4.024	0.366
85.000	125.991	80.003	19.994	103.846	19.892	4.066	0.376
85.500	126.161	80.004	19.994	103.850	19.890	4.191	0.400
86.000	126.328	80.004	19.994	103.850	19.890	4.223	0.366
86.500	126.523	80.003	19.995	103.852	19.890	4.172	0.349
87.000	126.715	80.003	19.995	103.853	19.890	4.182	0.375
87.500	126.895	80.003	19.994	103.859	19.892	4.061	0.380
88.000	127.098	80.003	19.995	103.863	19.891	4.112	0.377
88.500	127.307	80.002	19.994	103.867	19.892	4.063	0.397
89.000	127.467	80.002	19.995	103.865	19.893	3.983	0.390
89.500	127.684	80.003	19.995	103.864	19.891	4.123	0.373
90.000	127.904	80.001	19.993	103.864	19.890	4.225	0.407
90.501	128.110	80.003	19.994	103.865	19.892	4.061	0.432
91.001	128.298	80.002	19.994	103.864	19.890	4.157	0.411
91.501	128.468	80.001	19.995	103.868	19.894	3.878	0.377
92.001	128.666	80.001	19.995	103.874	19.893	3.951	0.363
92.501	128.853	80.001	19.995	103.875	19.890	4.205	0.376
93.001	129.076	80.001	19.994	103.870	19.891	4.135	0.397
93.500	129.289	80.001	19.995	103.871	19.895	3.781	0.423
94.000	129.463	80.001	19.995	103.871	19.892	4.046	0.411
94.500	129.714	80.001	19.994	103.868	19.891	4.127	0.406
95.000	129.851	80.002	19.994	103.864	19.889	4.238	0.406
95.500	130.058	80.000	19.994	103.867	19.891	4.117	0.366
96.000	130.269	80.001	19.994	103.862	19.890	4.187	0.381
96.500	130.458	80.001	19.995	103.858	19.890	4.225	0.409
97.000	130.720	80.002	19.994	103.855	19.891	4.095	0.426
97.500	130.819	80.000	19.995	103.853	19.889	4.253	0.407
98.000	131.070	80.001	19.995	103.852	19.890	4.195	0.356
98.500	131.265	80.001	19.995	103.853	19.891	4.129	0.398
99.000	131.462	80.001	19.994	103.854	19.894	3.866	0.419
99.500	131.673	80.002	19.995	103.854	19.890	4.212	0.400
100.000	131.880	80.001	19.995	103.854	19.893	3.987	0.413
100.500	132.089	80.001	19.995	103.852	19.893	3.964	0.417
101.000	132.322	80.001	19.994	103.850	19.891	4.133	0.429
101.500	132.537	80.001	19.994	103.849	19.890	4.174	0.445
102.000	132.732	79.999	19.994	103.849	19.891	4.076	0.429
102.500	132.940	80.001	19.995	103.848	19.891	4.129	0.406
103.000	133.124	80.000	19.996	103.846	19.895	3.800	0.398
103.500	133.333	80.001	19.995	103.847	19.892	4.034	0.393
104.000	133.536	80.003	19.994	103.848	19.892	4.014	0.402
104.500	133.765	80.001	19.995	103.849	19.894	3.851	0.422
105.000	134.007	80.001	19.995	103.853	19.894	3.861	0.452
105.500	134.216	80.001	19.995	103.857	19.894	3.868	0.461
106.000	134.405	80.001	19.993	103.859	19.892	4.040	0.424
106.500	134.641	80.000	19.996	103.862	19.893	3.940	0.411
107.000	134.810	80.000	19.996	103.864	19.893	3.972	0.415
107.500	135.075	80.000	19.996	103.860	19.893	3.976	0.420
108.000	135.296	80.000	19.995	103.857	19.895	3.783	0.460
108.500	135.479	80.000	19.996	103.856	19.894	3.898	0.445
109.000	135.694	80.000	19.996	103.855	19.891	4.082	0.401
109.500	135.938	80.001	19.995	103.853	19.895	3.789	0.428
110.000	136.121	79.998	19.996	103.857	19.893	3.997	0.443
110.500	136.352	80.000	19.999	103.856	19.894	3.868	0.421
111.001	136.569	80.000	19.999	103.856	19.895	3.840	0.431
111.501	136.785	80.001	19.996	103.852	19.895	3.798	0.441
112.000	136.991	80.001	19.998	103.852	19.892	4.015	0.428
112.500	137.258	80.002	19.997	103.846	19.894	3.913	0.447
113.000	137.446	80.001	20.000	103.846	19.895	3.830	0.463
113.500	137.666	80.001	20.000	103.848	19.894	3.866	0.432
114.000	137.894	80.000	19.998	103.850	19.894	3.864	0.428
114.500	138.095	80.000	19.997	103.850	19.895	3.775	0.438
115.000	138.346	80.001	19.996	103.851	19.896	3.758	0.440
115.500	138.546	80.000	19.997	103.851	19.893	3.957	0.452
116.000	138.780	80.001	19.996	103.848	19.893	3.985	0.443
116.500	139.004	80.001	19.995	103.847	19.893	3.932	0.446
117.000	139.220	80.001	19.995	103.848	19.895	3.834	0.449
117.500	139.466	80.001	19.994	103.848	19.897	3.672	0.451
118.001	139.629	80.001	19.996	103.849	19.894	3.866	0.436
118.501	139.924	80.001	19.994	103.851	19.894	3.894	0.434
119.000	140.120	80.000	19.995	103.851	19.895	3.775	0.474
119.500	140.309	80.000	19.995	103.850	19.894	3.921	0.438
120.000	140.549	80.001	19.995	103.851	19.893	3.938	0.407
120.500	140.767	80.000	19.995	103.851	19.893	3.978	0.443
121.000	141.026	79.999	19.995	103.850	19.893	3.995	0.467
121.500	141.217	80.000	19.995	103.851	19.892	4.042	0.464
122.000	141.442	80.000	19.995	103.851	19.895	3.798	0.433
122.500	141.653	80.001	19.994	103.853	19.892	4.049	0.426
123.000	141.868	80.001	19.995	103.853	19.893	3.983	0.431
123.500	142.078	80.000	19.994	103.854	19.896	3.736	0.426
124.000	142.364	80.001	19.996	103.853	19.894	3.908	0.461
124.500	142.549	80.001	19.995	103.855	19.893	3.989	0.483
125.000	142.800	80.000	19.995	103.856	19.893	3.972	0.453
125.500	143.023	80.001	19.995	103.858	19.893	3.957	0.455
126.000	143.300	80.000	19.994	103.858	19.893	3.940	0.488
126.500	143.482	80.001	19.995	103.858	19.892	4.014	0.480
127.000	143.730	79.999	19.995	103.856	19.890	4.208	0.444
127.500	143.954	80.000	19.994	103.853	19.889	4.284	0.451
128.000	144.223	79.999	19.994	103.850	19.893	3.985	0.483
128.500	144.425	79.999	19.995	103.851	19.893	3.995	0.482
129.000	144.615	80.002	19.995	103.854	19.889	4.235	0.432
129.500	144.893	79.999	19.994	103.857	19.894	3.868	0.430
130.000	145.114	80.001	19.994	103.857	19.893	3.980	0.483
130.500	145.345	80.001	19.994	103.857	19.892	4.063	0.475
131.000	145.559	80.000	19.993	103.856	19.890	4.163	0.448
131.500	145.801	80.001	19.995	103.854	19.894	3.908	0.451
132.000	146.014	80.001	19.994	103.853	19.892	4.014	0.456
132.501	146.257	80.001	19.994	103.854	19.893	3.978	0.455
133.000	146.488	80.002	19.995	103.854	19.892	4.031	0.465
133.500	146.713	80.001	19.994	103.854	19.890	4.191	0.465
134.000	146.938	80.001	19.994	103.854	19.894	3.853	0.453
134.500	147.192	80.001	19.993	103.852	19.890	4.165	0.464
135.000	147.391	80.003	19.995	103.851	19.895	3.845	0.466
135.500	147.648	80.002	19.995	103.851	19.898	3.551	0.455
136.000	147.855	80.003	19.994	103.849	19.891	4.089	0.460
136.500	148.097	80.002	19.994	103.849	19.891	4.097	0.457
137.000	148.345	80.001	19.994	103.851	19.891	4.112	0.469
137.500	148.515	80.001	19.995	103.851	19.898	3.587	0.453
138.001	148.783	80.002	19.994	103.852	19.891	4.087	0.428
138.500	149.022	80.003	19.993	103.854	19.896	3.709	0.473
139.000	149.288	80.001	19.994	103.854	19.895	3.777	0.506
139.500	149.480	80.003	19.994	103.853	19.893	3.959	0.482
140.000	149.736	80.003	19.993	103.853	19.892	4.042	0.453
140.500	149.978	80.002	19.994	103.852	19.892	4.059	0.473
141.000	150.203	80.002	19.994	103.851	19.893	3.951	0.482
141.500	150.451	80.003	19.993	103.851	19.892	4.033	0.470
142.000	150.676	80.003	19.993	103.850	19.893	3.951	0.474
142.500	150.922	80.002	19.994	103.849	19.898	3.611	0.472
143.000	151.143	80.002	19.994	103.849	19.893	3.936	0.469
143.500	151.406	80.003	19.993	103.848	19.902	3.301	0.475
144.000	151.634	80.001	19.995	103.848	19.904	3.154	0.487
144.500	151.835	80.003	19.995	103.848	19.890	4.174	0.460
145.001	152.086	80.002	19.994	103.847	19.889	4.237	0.441
145.501	152.355	80.002	19.994	103.850	19.892	4.053	0.486
146.000	152.641	80.002	19.994	103.850	19.892	4.048	0.537
146.500	152.823	80.002	19.994	103.849	19.890	4.172	0.512
147.000	153.072	80.002	19.994	103.848	19.893	3.951	0.449
147.500	153.309	80.003	19.993	103.849	19.894	3.881	0.458
148.000	153.492	80.002	19.994	103.846	19.893	3.934	0.453
148.500	153.740	80.002	19.993	103.847	19.894	3.863	0.426
149.000	154.032	80.003	19.993	103.849	19.895	3.776	0.486
149.500	154.197	80.003	19.994	103.850	19.894	3.846	0.499
150.000	154.471	80.002	19.994	103.849	19.894	3.905	0.447
150.500	154.854	80.002	19.993	103.848	19.892	4.009	0.548
151.000	155.081	80.002	19.994	103.846	19.893	3.947	0.634
151.500	155.138	80.003	19.994	103.846	19.891	4.147	0.447
152.000	155.430	80.003	19.994	103.845	19.892	4.057	0.316
152.500	155.674	80.003	19.994	103.846	19.891	4.151	0.442
153.000	155.874	80.002	19.993	103.846	19.891	4.095	0.490
153.500	156.133	80.004	19.994	103.846	19.894	3.870	0.452
154.000	156.343	80.002	19.994	103.847	19.891	4.102	0.464
154.500	156.613	80.002	19.995	103.846	19.897	3.694	0.475
155.000	156.847	80.003	19.994	103.846	19.896	3.768	0.492
155.500	157.080	80.002	19.995	103.846	19.894	3.851	0.485
156.000	157.318	80.003	19.996	103.846	19.891	4.080	0.469
156.500	157.583	80.003	19.995	103.847	19.892	4.014	0.487
157.000	157.756	80.002	19.994	103.848	19.894	3.908	0.471
157.500	158.022	80.003	19.996	103.848	19.894	3.902	0.438
158.000	158.269	80.004	19.995	103.848	19.894	3.904	0.476
158.500	158.524	80.004	19.995	103.847	19.892	4.003	0.508
159.000	158.758	80.004	19.994	103.846	19.892	4.052	0.496
159.500	158.993	80.004	19.994	103.846	19.891	4.129	0.479
160.000	159.206	80.004	19.994	103.827	19.891	4.106	0.458
160.500	159.480	80.004	19.993	103.785	19.889	4.288	0.468
161.000	159.699	80.005	19.995	103.762	19.892	4.018	0.490
161.500	159.934	80.004	19.994	103.753	19.895	3.838	0.473
162.000	160.224	80.005	19.994	103.750	19.891	4.148	0.490
162.500	160.464	80.004	19.994	103.769	19.892	4.048	0.528
163.000	160.647	80.004	19.994	103.811	19.895	3.774	0.476
163.500	160.957	80.005	19.994	103.864	19.891	4.131	0.458
164.000	161.152	80.004	19.995	103.907	19.893	3.961	0.499
164.500	161.445	80.004	19.997	103.918	19.894	3.880	0.496
165.000	161.645	80.003	19.996	103.925	19.896	3.765	0.490
165.500	161.911	80.003	19.995	103.926	19.895	3.787	0.480
166.000	162.141	80.002	19.996	103.894	19.892	4.058	0.481
166.500	162.396	80.004	19.996	103.861	19.893	3.990	0.490
167.000	162.635	80.003	19.994	103.853	19.894	3.899	0.490
167.500	162.845	80.002	19.996	103.845	19.894	3.910	0.471
168.000	163.115	80.002	19.994	103.843	19.895	3.825	0.464
168.500	163.394	80.001	19.996	103.843	19.894	3.874	0.514
169.000	163.609	80.004	19.996	103.842	19.897	3.689	0.522
169.500	163.878	80.002	19.994	103.842	19.893	3.965	0.489
170.000	164.115	80.002	19.995	103.844	19.890	4.205	0.495
170.500	164.347	80.002	19.997	103.844	19.890	4.205	0.487
171.000	164.595	80.001	19.997	103.844	19.892	4.067	0.474
171.500	164.887	80.001	19.997	103.841	19.892	4.021	0.510
172.000	165.100	80.002	19.996	103.836	19.894	3.893	0.522
172.500	165.352	80.002	19.996	103.834	19.892	4.061	0.485
