Sample ID:	C:\MCC\MCC Cal\Test\Cotton_Shirt\Cotton_Shirt_MCC_30K_min_210709_R1.txt
Sample Weight (mg):	5.35
Heating Rate (C/s):	1
Combustor Temp (C):	900
N2 Flow Rate (cc/min):	80
O2 Flow Rate (cc/min):	20
Calibration File:	C:\MCC\MCC Cal\Coeff1 JN10440_30_210304.txt.txt
T Correction Coefficients:	0	1.024463	0
Time Shift (s):	14
*
Time (s)	Temperature (C)	N2 flow rate (cc/min)	O2 flow rate (cc/min)	Flow Rate (cc/min)	Oxygen (%)	HRR (W/g)	Heating rate (C/s)
0.000	110.503	79.994	19.995	99.944	20.069	-0.063	-0.019
0.500	110.473	79.994	19.996	99.948	20.068	-0.017	-0.023
1.000	110.503	79.993	19.995	99.953	20.068	-0.024	-0.016
1.500	110.457	79.994	19.996	99.957	20.066	0.103	-0.007
2.000	110.475	79.994	19.994	99.959	20.068	-0.008	-0.022
2.500	110.481	79.994	19.995	99.958	20.069	-0.076	-0.002
3.000	110.521	79.995	19.995	99.957	20.068	-0.022	0.035
3.500	110.466	79.993	19.995	99.954	20.069	-0.038	0.016
4.000	110.493	79.992	19.995	99.951	20.067	0.051	-0.021
4.500	110.472	79.994	19.995	99.952	20.068	-0.019	-0.011
5.000	110.459	79.993	19.995	99.957	20.070	-0.116	-0.014
5.500	110.458	79.994	19.995	99.960	20.068	-0.029	-0.024
6.000	110.469	79.993	19.996	99.963	20.068	-0.008	-0.002
6.500	110.461	79.993	19.995	99.967	20.070	-0.103	0.006
7.000	110.497	79.994	19.996	99.967	20.068	0.000	0.015
7.500	110.458	79.993	19.996	99.969	20.069	-0.049	0.013
8.000	110.446	79.993	19.995	99.968	20.069	-0.051	-0.027
8.500	110.460	79.993	19.996	99.966	20.069	-0.032	-0.025
9.000	110.448	79.993	19.996	99.966	20.068	0.025	0.002
9.500	110.476	79.993	19.996	99.966	20.063	0.302	0.010
10.000	110.442	79.993	19.996	99.967	20.062	0.377	0.005
10.500	110.398	79.992	19.996	99.972	20.062	0.341	-0.042
11.001	110.433	79.992	19.998	99.979	20.058	0.608	-0.044
11.501	110.448	79.993	19.996	99.991	20.058	0.607	0.020
12.000	110.429	79.993	19.995	100.008	20.057	0.670	0.023
12.501	110.446	79.994	19.995	100.030	20.054	0.836	-0.003
13.001	110.416	79.992	19.996	100.054	20.048	1.167	-0.007
13.501	110.467	79.992	19.996	100.079	20.047	1.253	0.004
14.001	110.471	79.992	19.995	100.098	20.044	1.430	0.038
14.500	110.461	79.993	19.995	100.118	20.043	1.448	0.024
15.000	110.493	79.993	19.995	100.134	20.043	1.465	0.008
15.500	110.535	79.993	19.996	100.145	20.039	1.683	0.048
16.000	110.514	79.994	19.995	100.154	20.036	1.895	0.048
16.500	110.567	79.993	19.996	100.164	20.034	1.978	0.027
17.000	110.589	79.994	19.995	100.172	20.035	1.932	0.053
17.500	110.626	79.993	19.995	100.180	20.031	2.179	0.066
18.000	110.654	79.993	19.995	100.192	20.026	2.476	0.062
18.500	110.688	79.993	19.996	100.201	20.023	2.640	0.064
19.000	110.758	79.993	19.995	100.213	20.023	2.611	0.083
19.500	110.808	79.993	19.995	100.223	20.024	2.589	0.112
20.000	110.830	79.992	19.996	100.230	20.025	2.513	0.096
20.500	110.913	79.995	19.996	100.237	20.021	2.726	0.088
21.000	110.940	79.992	19.995	100.246	20.018	2.916	0.107
21.500	110.953	79.994	19.994	100.256	20.016	3.043	0.075
22.000	111.038	79.993	19.995	100.262	20.018	2.921	0.069
22.500	111.146	79.993	19.995	100.269	20.013	3.220	0.146
23.000	111.214	79.993	19.996	100.276	20.012	3.253	0.184
23.500	111.251	79.996	19.994	100.286	20.011	3.312	0.140
24.000	111.345	79.994	19.994	100.287	20.011	3.333	0.118
24.500	111.424	79.993	19.994	100.289	20.012	3.290	0.152
25.000	111.489	79.994	19.995	100.290	20.011	3.311	0.159
25.500	111.557	79.994	19.995	100.291	20.008	3.540	0.139
26.000	111.673	79.994	19.996	100.292	20.007	3.587	0.159
26.500	111.774	79.994	19.994	100.295	20.006	3.648	0.200
27.000	111.858	79.992	19.995	100.301	20.004	3.749	0.201
27.500	111.952	79.992	19.996	100.308	20.003	3.774	0.182
28.000	112.055	79.994	19.995	100.314	20.002	3.879	0.188
28.500	112.146	79.993	19.996	100.323	20.000	3.981	0.195
29.000	112.275	79.992	19.996	100.333	20.000	3.991	0.207
29.500	112.418	79.993	19.996	100.338	19.999	4.027	0.246
30.000	112.501	79.994	19.995	100.342	19.997	4.146	0.249
30.500	112.610	79.993	19.996	100.345	19.996	4.212	0.209
31.000	112.769	79.992	19.996	100.342	19.996	4.210	0.230
31.500	112.910	79.994	19.996	100.338	19.995	4.285	0.284
32.001	113.034	79.993	19.995	100.340	19.997	4.129	0.283
32.501	113.211	79.993	19.996	100.344	19.994	4.325	0.283
33.001	113.320	79.994	19.996	100.346	19.994	4.331	0.293
33.500	113.489	79.992	19.995	100.347	19.994	4.352	0.282
34.000	113.666	79.992	19.996	100.344	19.991	4.518	0.312
34.500	113.812	79.993	19.996	100.342	19.990	4.587	0.334
35.000	113.986	79.994	19.996	100.341	19.989	4.617	0.321
35.500	114.148	79.993	19.996	100.342	19.994	4.345	0.328
36.000	114.325	79.992	19.996	100.343	19.990	4.543	0.338
36.500	114.503	79.993	19.996	100.345	19.990	4.570	0.347
37.000	114.640	79.993	19.996	100.354	19.992	4.475	0.334
37.500	114.841	79.995	19.996	100.334	19.988	4.679	0.326
38.000	114.990	79.994	19.996	100.304	19.992	4.442	0.344
38.500	115.200	79.994	19.995	100.288	19.992	4.451	0.355
39.000	115.352	79.994	19.996	100.282	19.990	4.590	0.360
39.500	115.534	79.995	19.996	100.279	19.989	4.602	0.348
40.000	115.718	79.993	19.997	100.339	19.987	4.727	0.350
40.500	115.944	79.994	19.996	100.392	19.989	4.632	0.388
41.001	116.129	79.993	19.997	100.418	19.985	4.852	0.411
41.501	116.330	79.992	19.997	100.433	19.986	4.820	0.399
42.000	116.512	79.994	19.997	100.429	19.987	4.720	0.385
42.500	116.737	79.993	19.996	100.391	19.986	4.806	0.395
43.000	116.961	79.994	19.996	100.369	19.987	4.715	0.428
43.500	117.164	79.994	19.996	100.360	19.985	4.875	0.438
44.000	117.391	79.995	19.996	100.358	19.986	4.782	0.428
44.500	117.596	79.994	19.996	100.360	19.988	4.696	0.431
45.000	117.835	79.995	19.996	100.365	19.985	4.878	0.438
45.500	118.034	79.995	19.996	100.371	19.990	4.570	0.441
46.000	118.278	79.995	19.996	100.377	19.987	4.766	0.441
46.501	118.505	79.996	19.996	100.382	19.983	4.969	0.457
47.001	118.725	79.995	19.995	100.386	19.985	4.888	0.459
47.500	118.978	79.996	19.996	100.382	19.981	5.120	0.460
48.000	119.206	79.997	19.995	100.377	19.981	5.120	0.477
48.500	119.394	79.996	19.996	100.377	19.982	5.009	0.448
49.000	119.671	79.996	19.996	100.378	19.982	5.033	0.440
49.500	119.941	79.997	19.995	100.377	19.985	4.858	0.506
50.000	120.101	79.995	19.995	100.379	19.982	5.048	0.489
50.500	120.440	79.994	19.995	100.381	19.980	5.134	0.465
51.000	120.635	79.996	19.996	100.383	19.980	5.159	0.516
51.500	120.928	79.996	19.995	100.385	19.980	5.173	0.510
52.000	121.190	79.995	19.995	100.384	19.982	5.047	0.522
52.500	121.437	79.994	19.996	100.387	19.979	5.206	0.533
53.000	121.711	79.997	19.996	100.387	19.978	5.287	0.515
53.500	121.992	79.996	19.995	100.387	19.980	5.180	0.538
54.001	122.269	79.996	19.994	100.387	19.974	5.526	0.557
54.501	122.511	79.996	19.995	100.393	19.972	5.618	0.539
55.001	122.787	79.994	19.994	100.395	19.975	5.460	0.518
55.501	123.058	79.994	19.996	100.398	19.976	5.379	0.532
56.000	123.339	79.995	19.995	100.398	19.974	5.504	0.550
56.500	123.610	79.995	19.995	100.398	19.979	5.228	0.552
57.000	123.894	79.994	19.995	100.397	19.974	5.487	0.553
57.500	124.170	79.994	19.995	100.396	19.975	5.452	0.557
58.001	124.459	79.995	19.995	100.396	19.973	5.568	0.563
58.501	124.762	79.995	19.996	100.397	19.976	5.395	0.579
59.000	125.097	79.995	19.995	100.400	19.973	5.574	0.615
59.501	125.409	79.995	19.995	100.407	19.972	5.639	0.643
60.001	125.686	79.993	19.996	100.411	19.974	5.511	0.618
60.500	125.982	79.995	19.995	100.415	19.974	5.515	0.581
61.000	126.261	79.994	19.994	100.416	19.973	5.548	0.574
61.500	126.569	79.994	19.996	100.413	19.975	5.454	0.581
62.000	126.912	79.995	19.995	100.406	19.972	5.612	0.619
62.501	127.191	79.996	19.995	100.405	19.971	5.708	0.637
63.001	127.514	79.994	19.994	100.407	19.973	5.559	0.612
63.500	127.866	79.995	19.996	100.413	19.971	5.693	0.638
64.001	128.170	79.995	19.995	100.416	19.971	5.666	0.665
64.501	128.451	79.995	19.994	100.418	19.971	5.706	0.620
65.000	128.800	79.995	19.995	100.416	19.972	5.614	0.608
65.501	129.132	79.995	19.995	100.411	19.974	5.486	0.656
66.001	129.448	79.996	19.996	100.407	19.974	5.481	0.665
66.500	129.757	79.995	19.995	100.409	19.974	5.526	0.636
67.000	130.124	79.997	19.995	100.411	19.973	5.553	0.650
67.500	130.462	79.997	19.995	100.416	19.969	5.781	0.690
68.000	130.791	79.995	19.995	100.419	19.971	5.671	0.686
68.500	131.090	79.994	19.995	100.419	19.971	5.699	0.648
69.001	131.444	79.993	19.996	100.414	19.970	5.762	0.641
69.501	131.819	79.995	19.999	100.411	19.971	5.696	0.691
70.000	132.179	79.996	19.995	100.412	19.971	5.699	0.732
70.501	132.504	79.996	19.993	100.410	19.973	5.561	0.710
71.001	132.870	79.997	19.994	100.407	19.971	5.672	0.688
71.500	133.202	79.998	19.995	100.407	19.971	5.669	0.694
72.000	133.539	79.997	19.994	100.406	19.968	5.864	0.684
72.500	133.965	79.997	19.994	100.401	19.969	5.802	0.716
73.000	134.319	79.997	19.994	100.405	19.968	5.875	0.771
73.500	134.650	79.997	19.995	100.409	19.970	5.757	0.733
74.000	135.004	79.997	19.995	100.409	19.968	5.848	0.685
74.501	135.392	79.997	19.993	100.409	19.969	5.789	0.713
75.001	135.760	79.996	19.995	100.408	19.966	5.986	0.749
75.500	136.129	79.996	19.995	100.407	19.969	5.771	0.747
76.000	136.454	79.996	19.995	100.409	19.968	5.864	0.716
76.500	136.841	79.997	19.993	100.413	19.968	5.843	0.703
77.000	137.271	79.995	19.995	100.413	19.975	5.427	0.764
77.500	137.588	79.995	19.996	100.413	19.969	5.778	0.782
78.000	137.971	79.995	19.994	100.411	19.971	5.664	0.724
78.500	138.351	79.995	19.995	100.407	19.968	5.854	0.732
79.000	138.745	79.994	19.996	100.404	19.971	5.698	0.768
79.501	139.156	79.996	19.995	100.405	19.970	5.730	0.789
80.001	139.545	79.990	19.996	100.405	19.971	5.668	0.802
80.500	139.923	79.994	19.993	100.404	19.970	5.765	0.784
81.000	140.261	79.995	19.994	100.403	19.969	5.784	0.742
81.500	140.644	79.994	19.996	100.405	19.971	5.707	0.719
82.000	141.042	79.992	19.996	100.404	19.971	5.656	0.750
82.500	141.420	79.995	19.995	100.405	19.971	5.667	0.778
83.000	141.821	79.993	19.994	100.409	19.968	5.873	0.778
83.500	142.214	79.994	19.994	100.409	19.968	5.879	0.787
84.001	142.623	79.994	19.994	100.408	19.968	5.871	0.798
84.501	143.037	79.996	19.994	100.408	19.968	5.855	0.812
85.000	143.407	79.993	19.995	100.407	19.967	5.941	0.804
85.500	143.836	79.995	19.995	100.404	19.966	5.976	0.792
86.001	144.257	79.993	19.993	100.406	19.967	5.924	0.824
86.501	144.620	79.995	19.994	100.408	19.969	5.823	0.817
87.000	145.045	79.992	19.995	100.410	19.966	5.967	0.786
87.500	145.458	79.994	19.996	100.409	19.967	5.905	0.812
88.000	145.864	79.994	19.994	100.410	19.969	5.804	0.828
88.500	146.240	79.994	19.995	100.408	19.965	6.005	0.801
89.000	146.661	79.994	19.994	100.406	19.964	6.081	0.789
89.500	147.052	79.994	19.996	100.404	19.965	6.001	0.804
90.000	147.486	79.993	19.995	100.404	19.966	5.942	0.819
90.500	147.937	79.996	19.995	100.403	19.966	5.992	0.855
91.000	148.305	79.994	19.994	100.404	19.966	5.960	0.852
91.500	148.750	79.994	19.996	100.404	19.967	5.900	0.816
92.001	149.184	79.993	19.996	100.404	19.968	5.884	0.846
92.501	149.623	79.995	19.995	100.404	19.967	5.898	0.876
93.001	150.039	79.994	19.996	100.404	19.964	6.086	0.864
93.501	150.444	79.995	19.995	100.401	19.969	5.798	0.838
94.000	150.877	79.992	19.997	100.401	19.968	5.841	0.829
94.500	151.280	79.998	19.994	100.400	19.969	5.782	0.837
95.000	151.704	79.993	19.996	100.398	19.969	5.804	0.832
95.500	152.133	79.994	19.997	100.399	19.967	5.895	0.840
96.000	152.545	79.994	19.995	100.397	19.966	5.975	0.847
96.500	152.990	79.995	19.997	100.397	19.968	5.853	0.849
97.000	153.351	79.994	19.996	100.397	19.970	5.734	0.831
97.500	153.795	79.993	19.996	100.397	19.970	5.740	0.805
98.000	154.219	79.992	20.000	100.397	19.968	5.857	0.837
98.500	154.615	79.994	19.996	100.396	19.970	5.761	0.844
99.000	155.035	79.993	19.996	100.392	19.967	5.922	0.818
99.500	155.482	79.997	19.995	100.391	19.970	5.745	0.842
100.000	155.925	79.991	19.998	100.391	19.968	5.839	0.878
100.500	156.345	79.997	19.995	100.389	19.969	5.796	0.876
101.000	156.773	79.995	19.997	100.390	19.966	5.978	0.856
101.501	157.230	79.998	19.996	100.394	19.968	5.834	0.866
102.001	157.642	79.992	19.996	100.395	19.966	5.955	0.877
102.500	158.073	79.991	20.000	100.391	19.969	5.780	0.856
103.000	158.514	79.987	20.001	100.392	19.968	5.867	0.857
103.500	158.974	79.995	19.993	100.391	19.967	5.933	0.886
104.001	159.427	79.999	19.991	100.392	19.968	5.869	0.907
104.501	159.849	79.995	19.996	100.394	19.970	5.763	0.894
105.001	160.300	79.995	19.994	100.396	19.971	5.702	0.874
105.500	160.741	79.990	19.996	100.397	19.969	5.772	0.883
106.000	161.189	79.994	19.997	100.398	19.966	5.984	0.891
106.500	161.650	79.999	19.994	100.395	19.965	6.006	0.900
107.000	162.073	79.989	19.998	100.393	19.967	5.886	0.897
107.500	162.569	79.995	19.997	100.392	19.969	5.816	0.901
108.000	163.007	79.994	19.997	100.392	19.966	5.958	0.926
108.500	163.446	79.999	19.996	100.392	19.967	5.893	0.906
109.000	163.911	79.996	19.999	100.394	19.968	5.868	0.891
109.500	164.372	79.997	19.995	100.395	19.967	5.913	0.915
110.001	164.829	79.996	19.994	100.398	19.967	5.895	0.922
110.501	165.287	79.995	19.998	100.399	19.967	5.935	0.916
111.000	165.774	79.994	19.996	100.398	19.964	6.064	0.930
111.500	166.206	79.995	19.995	100.397	19.965	6.021	0.932
112.000	166.690	79.992	19.996	100.394	19.967	5.893	0.918
112.500	167.123	79.994	19.996	100.392	19.966	5.977	0.917
113.000	167.572	79.995	19.996	100.389	19.970	5.736	0.899
113.501	168.052	79.994	19.995	100.386	19.970	5.707	0.905
114.001	168.489	79.993	19.994	100.386	19.968	5.879	0.923
114.500	168.956	79.995	19.995	100.390	19.969	5.776	0.911
115.000	169.453	79.993	19.995	100.391	19.968	5.857	0.934
115.500	169.891	79.994	19.997	100.395	19.969	5.767	0.949
116.000	170.346	79.988	19.999	100.396	19.971	5.660	0.914
116.500	170.820	79.994	20.002	100.390	19.965	6.020	0.911
117.000	171.286	79.997	19.989	100.384	19.968	5.842	0.934
117.501	171.808	79.993	19.997	100.379	19.970	5.761	0.964
118.001	172.218	79.995	19.995	100.374	19.969	5.776	0.960
118.500	172.710	79.995	19.998	100.376	19.968	5.871	0.917
119.000	173.139	79.997	19.995	100.382	19.968	5.842	0.911
119.500	173.636	79.991	20.000	100.388	19.969	5.824	0.923
120.000	174.125	79.993	19.993	100.392	19.969	5.818	0.956
120.500	174.561	79.992	19.996	100.397	19.968	5.882	0.955
121.000	175.033	79.993	19.995	100.397	19.968	5.864	0.916
121.500	175.513	79.994	19.997	100.397	19.970	5.765	0.930
122.000	175.961	79.997	19.994	100.395	19.968	5.857	0.940
122.501	176.469	79.989	19.996	100.391	19.968	5.879	0.942
123.001	176.925	79.999	19.995	100.386	19.964	6.073	0.960
123.500	177.420	79.996	19.995	100.380	19.968	5.830	0.957
124.001	177.860	79.989	20.000	100.375	19.966	5.970	0.943
124.501	178.351	79.997	20.000	100.373	19.968	5.863	0.933
125.000	178.875	79.994	19.990	100.374	19.966	5.971	0.973
125.500	179.350	79.994	19.992	100.377	19.967	5.930	1.007
126.000	179.827	79.999	19.993	100.380	19.969	5.813	0.976
126.500	180.294	79.993	19.993	100.383	19.967	5.906	0.948
127.000	180.784	79.991	19.998	100.383	19.968	5.824	0.950
127.501	181.261	79.994	19.998	100.386	19.968	5.824	0.962
128.000	181.778	79.994	19.999	100.386	19.966	5.976	0.981
128.500	182.286	80.002	19.996	100.387	19.966	5.941	1.010
129.000	182.756	79.992	20.000	100.385	19.968	5.871	1.002
129.500	183.238	79.994	19.999	100.387	19.966	5.941	0.965
130.000	183.714	79.995	19.994	100.388	19.971	5.665	0.955
130.500	184.172	79.997	20.000	100.388	19.967	5.891	0.946
131.000	184.712	79.996	19.997	100.389	19.967	5.918	0.966
131.500	185.175	79.992	19.998	100.388	19.968	5.828	1.001
132.000	185.693	79.994	19.996	100.388	19.970	5.762	0.992
132.500	186.190	79.994	19.992	100.384	19.965	6.036	0.998
133.000	186.693	79.992	19.997	100.378	19.969	5.797	1.007
133.500	187.231	79.993	19.998	100.376	19.965	6.019	1.020
134.001	187.701	79.997	19.995	100.379	19.968	5.839	1.025
134.501	188.214	79.995	19.991	100.374	19.969	5.794	0.995
135.000	188.651	79.992	19.999	100.372	19.968	5.853	0.966
135.500	189.164	79.996	19.996	100.370	19.967	5.898	0.950
136.000	189.654	79.995	19.990	100.367	19.968	5.837	0.977
136.500	190.156	79.996	19.998	100.363	19.968	5.880	0.997
137.000	190.654	79.994	19.995	100.361	19.969	5.783	0.996
137.500	191.122	79.996	19.994	100.361	19.968	5.877	0.983
138.000	191.633	79.987	19.998	100.361	19.971	5.692	0.972
138.500	192.126	79.997	19.998	100.361	19.970	5.734	0.992
139.000	192.637	79.997	19.998	100.360	19.970	5.759	1.004
139.500	193.139	79.995	19.996	100.361	19.968	5.844	1.009
140.000	193.686	79.996	19.996	100.360	19.968	5.847	1.031
140.500	194.177	79.995	19.995	100.360	19.969	5.785	1.044
141.000	194.694	79.992	19.997	100.360	19.967	5.890	1.023
141.500	195.157	79.996	19.997	100.360	19.967	5.926	0.994
142.000	195.646	79.994	19.992	100.360	19.968	5.844	0.966
142.500	196.159	79.995	19.995	100.361	19.968	5.826	0.977
143.000	196.643	79.996	19.991	100.361	19.967	5.905	0.999
143.500	197.131	79.991	19.997	100.361	19.966	5.954	0.984
144.000	197.687	79.993	20.001	100.360	19.967	5.910	1.008
144.500	198.202	79.993	19.999	100.359	19.968	5.847	1.057
145.001	198.672	79.994	19.995	100.358	19.970	5.723	1.028
145.501	199.178	79.994	19.997	100.358	19.967	5.939	0.981
146.000	199.686	79.996	19.994	100.356	19.966	5.943	0.995
146.500	200.230	79.995	19.993	100.358	19.968	5.856	1.033
147.000	200.684	79.996	19.995	100.359	19.963	6.124	1.025
147.500	201.205	79.997	19.993	100.360	19.966	5.993	0.987
148.000	201.735	79.992	19.997	100.361	19.968	5.860	1.013
148.500	202.275	79.996	19.997	100.361	19.968	5.849	1.060
149.000	202.770	79.995	19.990	100.361	19.965	6.034	1.052
149.500	203.290	79.996	19.994	100.362	19.966	5.954	1.025
150.000	203.769	79.996	19.987	100.362	19.963	6.155	1.007
150.500	204.302	79.996	19.993	100.367	19.965	6.045	1.006
151.000	204.808	79.999	19.991	100.346	19.965	6.014	1.025
151.500	205.301	79.997	19.989	100.310	19.966	5.943	1.019
152.000	205.813	79.996	19.995	100.286	19.966	5.968	1.002
152.500	206.351	79.995	19.996	100.272	19.961	6.256	1.028
153.000	206.863	79.998	19.992	100.257	19.966	5.981	1.050
153.500	207.405	80.000	19.993	100.281	19.966	5.974	1.052
154.000	207.917	79.999	19.997	100.342	19.970	5.734	1.054
154.500	208.422	80.002	19.998	100.391	19.964	6.092	1.035
155.000	208.908	79.999	19.993	100.414	19.968	5.868	1.004
155.500	209.398	79.997	19.998	100.423	19.966	5.941	0.983
156.000	209.946	79.995	19.999	100.419	19.969	5.797	1.007
156.500	210.402	79.994	19.993	100.393	19.966	5.952	1.021
157.000	210.958	79.989	20.003	100.366	19.970	5.708	1.008
157.500	211.493	79.991	19.997	100.356	19.966	5.955	1.051
158.000	211.972	79.997	19.995	100.354	19.965	6.019	1.052
158.500	212.507	79.995	19.997	100.351	19.967	5.891	1.014
159.000	213.027	79.998	19.995	100.346	19.967	5.912	1.035
159.500	213.540	79.998	19.991	100.338	19.970	5.721	1.044
160.000	214.036	79.997	19.996	100.340	19.968	5.840	1.021
160.500	214.570	80.006	19.990	100.341	19.966	5.978	1.020
161.000	215.054	79.992	19.993	100.344	19.968	5.846	1.024
161.500	215.576	79.996	19.998	100.347	19.966	5.969	1.012
162.000	216.084	79.996	19.996	100.352	19.965	6.001	1.018
162.500	216.636	79.996	19.994	100.346	19.967	5.910	1.045
163.000	217.123	79.995	19.993	100.340	19.967	5.908	1.049
163.500	217.665	79.997	19.991	100.336	19.967	5.912	1.034
164.000	218.141	79.994	19.999	100.336	19.964	6.079	1.024
164.500	218.670	79.992	19.998	100.333	19.966	5.945	1.012
165.000	219.183	79.995	19.991	100.335	19.966	5.957	1.023
165.500	219.716	79.998	19.991	100.339	19.964	6.090	1.044
166.000	220.214	79.997	19.996	100.339	19.964	6.094	1.039
166.500	220.733	79.993	19.997	100.336	19.965	6.040	1.024
167.000	221.227	79.992	19.998	100.336	19.965	6.034	1.014
167.500	221.771	79.992	19.998	100.336	19.967	5.905	1.025
168.000	222.333	79.995	19.995	100.330	19.965	6.036	1.072
168.500	222.857	79.993	19.995	100.326	19.967	5.905	1.096
169.000	223.358	79.993	19.993	100.329	19.966	5.942	1.055
169.500	223.863	80.001	19.990	100.330	19.967	5.899	1.016
170.000	224.386	80.001	19.992	100.328	19.964	6.086	1.018
170.500	224.906	79.991	19.997	100.331	19.970	5.760	1.036
171.000	225.395	79.992	20.003	100.328	19.967	5.889	1.026
171.500	225.942	79.996	19.996	100.325	19.965	6.000	1.022
172.000	226.459	79.995	19.994	100.323	19.964	6.109	1.050
172.500	226.954	79.995	19.996	100.322	19.966	5.940	1.038
