Sample ID:	C:\MCC\MCC Cal\Test\LW_GypBoard_Unpainted_Paper_MCC_30K_min_211130_R3.txt
Sample Weight (mg):	4.82
Heating Rate (C/s):	0.5
Combustor Temp (C):	900
N2 Flow Rate (cc/min):	80
O2 Flow Rate (cc/min):	20
Calibration File:	C:\MCC\MCC Cal\Coeff1 JN10440_30_210304.txt.txt
T Correction Coefficients:	0	1.024463	0
Time Shift (s):	14
*
Time (s)	Temperature (C)	N2 flow rate (cc/min)	O2 flow rate (cc/min)	Flow Rate (cc/min)	Oxygen (%)	HRR (W/g)	Heating rate (C/s)
-0.001	112.221	80.006	19.996	103.115	20.147	-0.293	-0.029
0.499	112.215	80.005	19.995	103.117	20.142	0.022	-0.015
1.000	112.209	80.005	19.994	103.120	20.145	-0.170	-0.013
1.500	112.192	80.005	19.995	103.122	20.145	-0.159	-0.017
2.000	112.211	80.006	19.994	103.128	20.142	-0.022	-0.011
2.500	112.197	80.005	19.995	103.128	20.144	-0.126	0.003
3.000	112.202	80.005	19.995	103.126	20.144	-0.117	-0.002
3.500	112.209	80.005	19.994	103.120	20.145	-0.202	0.002
4.000	112.191	80.006	19.994	103.118	20.144	-0.143	0.000
4.500	112.217	80.005	19.994	103.110	20.144	-0.154	-0.002
5.000	112.197	80.006	19.994	103.100	20.148	-0.370	0.007
5.500	112.201	80.006	19.994	103.094	20.149	-0.429	-0.005
6.000	112.229	80.005	19.994	103.093	20.149	-0.430	0.008
6.500	112.193	80.006	19.994	103.093	20.150	-0.518	0.012
7.000	112.192	80.007	19.994	103.096	20.149	-0.460	-0.023
7.500	112.207	80.006	19.994	103.098	20.146	-0.227	-0.011
8.000	112.208	80.008	19.994	103.098	20.146	-0.278	0.015
8.499	112.212	80.006	19.993	103.098	20.147	-0.300	0.010
8.999	112.174	80.009	19.994	103.103	20.146	-0.284	-0.014
9.499	112.196	80.007	19.993	103.111	20.144	-0.154	-0.025
10.000	112.197	80.008	19.994	103.117	20.143	-0.073	0.003
10.500	112.144	80.008	19.994	103.123	20.143	-0.086	-0.015
10.999	112.154	80.008	19.993	103.130	20.143	-0.051	-0.047
11.499	112.175	80.008	19.995	103.129	20.141	0.055	-0.006
11.999	112.189	80.008	19.995	103.130	20.142	0.022	0.033
12.499	112.221	80.008	19.995	103.139	20.144	-0.106	0.040
12.999	112.211	80.008	19.994	103.146	20.143	-0.062	0.034
13.499	112.190	80.008	19.993	103.153	20.140	0.137	-0.005
13.999	112.176	80.009	19.993	103.163	20.141	0.064	-0.033
14.499	112.202	80.007	19.994	103.169	20.140	0.126	-0.011
14.999	112.255	80.008	19.995	103.168	20.139	0.196	0.045
15.500	112.227	80.007	19.995	103.169	20.138	0.279	0.052
16.000	112.251	80.006	19.994	103.169	20.136	0.380	0.011
16.500	112.262	80.007	19.993	103.170	20.139	0.193	0.016
17.000	112.274	80.008	19.995	103.170	20.139	0.237	0.029
17.500	112.276	80.006	19.995	103.171	20.139	0.213	0.018
18.000	112.286	80.007	19.994	103.172	20.136	0.383	0.013
18.500	112.309	80.006	19.994	103.172	20.134	0.552	0.023
19.000	112.336	80.005	19.994	103.170	20.133	0.625	0.041
19.500	112.336	80.004	19.995	103.170	20.132	0.688	0.038
20.000	112.371	80.006	19.994	103.169	20.134	0.565	0.031
20.500	112.416	80.005	19.994	103.172	20.133	0.581	0.058
21.000	112.426	80.005	19.995	103.173	20.129	0.858	0.068
21.500	112.425	80.006	19.994	103.175	20.129	0.862	0.032
22.000	112.415	80.005	19.994	103.175	20.126	1.088	-0.001
22.500	112.395	80.005	19.993	103.175	20.127	0.989	-0.021
23.000	112.504	80.005	19.995	103.173	20.122	1.326	0.029
23.500	112.505	80.006	19.994	103.173	20.124	1.187	0.099
24.000	112.525	80.005	19.994	103.177	20.123	1.303	0.066
24.500	112.505	80.004	19.994	103.184	20.125	1.152	0.011
25.000	112.596	80.006	19.995	103.198	20.122	1.336	0.035
25.500	112.664	80.005	19.994	103.213	20.120	1.499	0.115
26.000	112.691	80.006	19.994	103.229	20.122	1.343	0.127
26.500	112.690	80.004	19.994	103.243	20.120	1.466	0.061
27.000	112.757	80.005	19.994	103.258	20.120	1.451	0.046
27.500	112.790	80.005	19.993	103.267	20.118	1.602	0.083
28.000	112.782	80.005	19.994	103.274	20.119	1.519	0.063
28.500	112.865	80.005	19.993	103.281	20.116	1.723	0.050
29.000	112.901	80.006	19.994	103.286	20.118	1.592	0.097
29.500	112.950	80.004	19.994	103.286	20.116	1.776	0.102
30.000	113.002	80.005	19.994	103.286	20.116	1.760	0.093
30.500	113.054	80.006	19.995	103.287	20.115	1.840	0.102
31.000	113.110	80.004	19.995	103.287	20.112	1.989	0.106
31.500	113.220	80.005	19.994	103.291	20.113	1.971	0.137
32.000	113.231	80.006	19.994	103.299	20.113	1.980	0.144
32.499	113.313	80.005	19.994	103.307	20.113	1.932	0.107
33.000	113.376	80.004	19.995	103.315	20.115	1.796	0.119
33.500	113.428	80.005	19.995	103.323	20.109	2.215	0.131
33.999	113.498	80.005	19.994	103.326	20.111	2.064	0.119
34.499	113.561	80.004	19.995	103.325	20.109	2.198	0.127
34.999	113.642	80.005	19.995	103.325	20.111	2.107	0.139
35.499	113.697	80.006	19.996	103.325	20.108	2.253	0.140
35.999	113.780	80.004	19.995	103.325	20.108	2.275	0.137
36.499	113.879	80.007	19.994	103.326	20.109	2.182	0.160
36.999	113.941	80.006	19.995	103.326	20.108	2.272	0.171
37.500	114.025	80.006	19.995	103.326	20.109	2.224	0.153
38.000	114.088	80.006	19.994	103.327	20.111	2.097	0.147
38.499	114.223	80.006	19.995	103.327	20.109	2.209	0.173
39.000	114.270	80.005	19.995	103.326	20.107	2.352	0.190
39.500	114.355	80.005	19.995	103.327	20.109	2.237	0.157
39.999	114.474	80.005	19.995	103.327	20.108	2.259	0.168
40.499	114.558	80.005	19.995	103.330	20.106	2.424	0.204
40.999	114.634	80.005	19.996	103.334	20.108	2.252	0.181
41.499	114.727	80.005	19.994	103.336	20.109	2.202	0.164
41.999	114.841	80.005	19.995	103.338	20.105	2.459	0.188
42.499	114.912	80.005	19.995	103.339	20.110	2.171	0.196
42.999	115.021	80.005	19.997	103.335	20.110	2.156	0.183
43.499	115.109	80.006	19.995	103.335	20.107	2.332	0.188
43.999	115.214	80.006	19.995	103.339	20.108	2.297	0.195
44.499	115.339	80.005	19.995	103.339	20.108	2.295	0.211
44.999	115.413	80.005	19.994	103.338	20.107	2.327	0.215
45.500	115.536	80.005	19.996	103.341	20.106	2.424	0.198
46.000	115.652	80.005	19.995	103.342	20.108	2.299	0.218
46.499	115.769	80.006	19.995	103.340	20.108	2.299	0.236
46.999	115.893	80.004	19.995	103.340	20.110	2.156	0.237
47.499	115.993	80.005	19.994	103.341	20.108	2.273	0.232
47.999	116.084	80.004	19.994	103.339	20.110	2.129	0.207
48.500	116.202	80.004	19.995	103.336	20.107	2.349	0.200
49.001	116.332	80.004	19.995	103.332	20.107	2.318	0.229
49.500	116.450	80.004	19.994	103.330	20.106	2.435	0.248
49.999	116.591	80.005	19.996	103.330	20.104	2.551	0.254
50.499	116.684	80.003	19.994	103.331	20.106	2.426	0.246
51.000	116.813	80.002	19.994	103.337	20.105	2.492	0.227
51.500	116.961	80.005	19.994	103.343	20.104	2.536	0.249
51.999	117.070	80.003	19.994	103.350	20.108	2.285	0.268
52.499	117.212	80.004	19.995	103.352	20.106	2.441	0.254
52.999	117.340	80.004	19.995	103.351	20.108	2.278	0.260
53.500	117.469	80.004	19.994	103.346	20.108	2.296	0.263
54.001	117.614	80.004	19.996	103.343	20.104	2.524	0.265
54.501	117.766	80.002	19.995	103.337	20.107	2.369	0.285
55.001	117.885	80.005	19.994	103.336	20.108	2.281	0.284
55.501	118.028	80.006	19.995	103.337	20.106	2.412	0.267
56.000	118.137	80.005	19.995	103.337	20.105	2.513	0.257
56.499	118.312	80.004	19.994	103.335	20.107	2.369	0.268
57.000	118.451	80.005	19.995	103.335	20.106	2.424	0.299
57.500	118.609	80.005	19.994	103.336	20.107	2.355	0.305
58.000	118.714	80.005	19.994	103.336	20.103	2.632	0.280
58.500	118.918	80.005	19.996	103.338	20.102	2.692	0.286
58.999	119.028	80.004	19.994	103.345	20.102	2.698	0.312
59.499	119.191	80.004	19.996	103.348	20.104	2.547	0.293
59.999	119.345	80.006	19.995	103.348	20.107	2.368	0.294
60.499	119.477	80.006	19.994	103.351	20.105	2.472	0.302
60.999	119.589	80.005	19.995	103.351	20.105	2.509	0.266
61.500	119.787	80.005	19.995	103.348	20.103	2.628	0.277
62.000	119.935	80.005	19.995	103.347	20.107	2.355	0.328
62.500	120.042	80.004	19.995	103.352	20.108	2.309	0.300
63.000	120.209	80.006	19.995	103.353	20.107	2.364	0.264
63.499	120.385	80.006	19.995	103.357	20.105	2.485	0.308
64.000	120.519	80.005	19.995	103.361	20.106	2.441	0.327
64.500	120.671	80.006	19.995	103.364	20.105	2.454	0.298
64.999	120.843	80.006	19.996	103.365	20.108	2.274	0.305
65.499	121.009	80.006	19.994	103.366	20.107	2.333	0.331
65.999	121.165	80.004	19.996	103.364	20.107	2.358	0.330
66.499	121.342	80.006	19.995	103.364	20.108	2.302	0.328
67.000	121.464	80.006	19.994	103.363	20.108	2.278	0.316
67.500	121.693	80.006	19.995	103.363	20.107	2.366	0.324
67.999	121.841	80.006	19.995	103.362	20.105	2.514	0.364
68.499	122.012	80.005	19.995	103.364	20.106	2.402	0.348
68.999	122.167	80.007	19.995	103.365	20.103	2.597	0.323
69.499	122.314	80.007	19.996	103.364	20.105	2.467	0.314
70.000	122.468	80.007	19.996	103.363	20.103	2.597	0.302
70.501	122.661	80.006	19.995	103.364	20.106	2.430	0.324
71.000	122.824	80.005	19.995	103.363	20.103	2.641	0.351
71.499	123.030	80.006	19.995	103.363	20.105	2.511	0.363
71.999	123.196	80.006	19.995	103.365	20.104	2.540	0.370
72.499	123.357	80.007	19.995	103.366	20.104	2.546	0.349
72.999	123.518	80.007	19.994	103.367	20.103	2.592	0.325
73.500	123.705	80.006	19.996	103.367	20.105	2.481	0.335
74.000	123.929	80.006	19.994	103.367	20.102	2.716	0.380
74.500	124.084	80.008	19.995	103.366	20.103	2.592	0.395
75.001	124.253	80.006	19.996	103.366	20.102	2.683	0.351
75.500	124.451	80.006	19.995	103.366	20.103	2.588	0.345
75.999	124.641	80.007	19.994	103.366	20.102	2.683	0.377
76.499	124.847	80.006	19.995	103.366	20.103	2.636	0.392
76.999	125.001	80.006	19.996	103.366	20.104	2.551	0.379
77.499	125.150	80.006	19.994	103.365	20.102	2.680	0.332
77.999	125.375	80.007	19.996	103.365	20.099	2.863	0.339
78.500	125.546	80.005	19.995	103.365	20.104	2.547	0.385
79.001	125.776	80.006	19.994	103.365	20.103	2.628	0.398
79.500	125.927	80.007	19.994	103.365	20.101	2.784	0.391
80.000	126.141	80.007	19.993	103.365	20.105	2.456	0.373
80.500	126.346	80.007	19.996	103.365	20.103	2.615	0.392
81.000	126.495	80.006	19.995	103.365	20.101	2.747	0.386
81.500	126.687	80.007	19.995	103.366	20.105	2.467	0.347
81.999	126.908	80.006	19.995	103.366	20.106	2.430	0.377
82.499	127.095	80.006	19.996	103.367	20.105	2.516	0.411
82.999	127.263	80.008	19.996	103.368	20.105	2.481	0.382
83.500	127.485	80.006	19.995	103.369	20.102	2.692	0.373
84.000	127.676	80.007	19.995	103.369	20.101	2.758	0.401
84.499	127.858	80.008	19.995	103.368	20.105	2.516	0.393
84.999	128.053	80.006	19.995	103.367	20.103	2.606	0.375
85.499	128.254	80.006	19.994	103.366	20.105	2.483	0.386
86.000	128.445	80.008	19.994	103.366	20.101	2.751	0.394
86.500	128.694	80.007	19.994	103.365	20.104	2.533	0.416
87.000	128.882	80.008	19.995	103.365	20.103	2.604	0.438
87.500	129.072	80.007	19.994	103.365	20.104	2.571	0.407
87.999	129.246	80.009	19.994	103.365	20.104	2.529	0.371
88.499	129.470	80.008	19.994	103.366	20.103	2.641	0.381
88.999	129.683	80.008	19.994	103.366	20.102	2.678	0.418
89.499	129.891	80.009	19.995	103.366	20.103	2.624	0.429
89.999	130.073	80.007	19.994	103.364	20.103	2.626	0.405
90.499	130.291	80.007	19.994	103.364	20.101	2.738	0.395
91.000	130.528	80.009	19.995	103.363	20.101	2.727	0.428
91.501	130.704	80.008	19.994	103.363	20.102	2.713	0.434
92.000	130.911	80.009	19.994	103.363	20.102	2.698	0.398
92.499	131.095	80.008	19.995	103.364	20.100	2.788	0.387
92.999	131.302	80.008	19.994	103.364	20.102	2.672	0.391
93.499	131.528	80.008	19.993	103.364	20.100	2.819	0.412
93.999	131.769	80.008	19.995	103.363	20.099	2.904	0.450
94.499	131.995	80.008	19.994	103.363	20.104	2.573	0.467
94.999	132.152	80.008	19.994	103.363	20.102	2.667	0.425
95.499	132.390	80.008	19.995	103.364	20.101	2.736	0.389
96.000	132.588	80.008	19.994	103.364	20.103	2.637	0.415
96.500	132.806	80.008	19.994	103.364	20.102	2.692	0.426
97.000	133.013	80.008	19.995	103.364	20.106	2.439	0.420
97.500	133.245	80.006	19.994	103.364	20.106	2.443	0.432
97.999	133.460	80.007	19.995	103.362	20.103	2.626	0.443
98.500	133.641	80.005	19.994	103.362	20.106	2.415	0.421
99.001	133.864	80.006	19.995	103.362	20.104	2.547	0.400
99.500	134.110	80.006	19.995	103.362	20.106	2.432	0.437
99.999	134.312	80.005	19.995	103.362	20.102	2.661	0.459
100.499	134.566	80.005	19.994	103.363	20.103	2.617	0.452
100.999	134.757	80.006	19.995	103.363	20.104	2.551	0.451
101.499	134.970	80.006	19.995	103.364	20.106	2.447	0.425
101.999	135.178	80.005	19.995	103.364	20.106	2.448	0.412
102.499	135.405	80.005	19.995	103.365	20.108	2.294	0.428
103.000	135.618	80.005	19.995	103.365	20.106	2.419	0.438
103.500	135.833	80.005	19.995	103.365	20.105	2.454	0.434
103.999	136.048	80.003	19.995	103.366	20.107	2.338	0.429
104.499	136.286	80.005	19.995	103.366	20.107	2.349	0.441
104.999	136.506	80.005	19.994	103.366	20.106	2.448	0.455
105.499	136.702	80.004	19.994	103.365	20.108	2.287	0.437
105.999	136.947	80.006	19.995	103.364	20.107	2.346	0.429
106.499	137.147	80.006	19.995	103.365	20.107	2.346	0.443
106.999	137.389	80.006	19.995	103.364	20.108	2.250	0.443
107.499	137.604	80.006	19.995	103.364	20.106	2.432	0.450
107.999	137.877	80.005	19.995	103.366	20.106	2.415	0.473
108.499	138.095	80.006	19.996	103.366	20.107	2.353	0.490
108.999	138.307	80.005	19.997	103.366	20.108	2.274	0.461
109.500	138.532	80.006	19.995	103.367	20.110	2.134	0.434
110.001	138.742	80.004	19.995	103.367	20.109	2.234	0.436
110.500	138.962	80.005	19.994	103.367	20.108	2.276	0.432
110.999	139.232	80.007	19.994	103.367	20.107	2.346	0.460
111.499	139.484	80.005	19.994	103.366	20.109	2.202	0.506
111.999	139.715	80.006	19.994	103.366	20.108	2.268	0.502
112.499	139.950	80.006	19.996	103.366	20.105	2.485	0.474
113.000	140.181	80.006	19.994	103.367	20.107	2.366	0.466
113.500	140.435	80.004	19.995	103.367	20.105	2.476	0.476
114.000	140.631	80.005	19.993	103.368	20.108	2.296	0.467
114.500	140.877	80.004	19.993	103.369	20.106	2.395	0.446
114.999	141.119	80.007	19.994	103.369	20.106	2.443	0.465
115.499	141.343	80.006	19.995	103.370	20.108	2.278	0.477
115.999	141.589	80.006	19.994	103.370	20.108	2.267	0.468
116.499	141.792	80.007	19.994	103.370	20.106	2.421	0.459
116.999	142.054	80.006	19.994	103.370	20.105	2.500	0.457
117.499	142.262	80.008	19.993	103.370	20.110	2.134	0.468
118.000	142.515	80.005	19.995	103.369	20.105	2.489	0.465
118.500	142.756	80.006	19.995	103.369	20.105	2.452	0.478
119.000	143.011	80.005	19.994	103.369	20.107	2.322	0.495
119.500	143.220	80.007	19.994	103.368	20.108	2.309	0.480
119.999	143.463	80.005	19.995	103.365	20.106	2.384	0.458
120.499	143.724	80.005	19.994	103.365	20.110	2.136	0.478
120.999	143.948	80.005	19.993	103.365	20.110	2.153	0.494
121.499	144.187	80.005	19.994	103.365	20.107	2.380	0.474
121.999	144.444	80.006	19.994	103.364	20.108	2.265	0.480
122.499	144.667	80.005	19.994	103.365	20.109	2.182	0.488
122.999	144.903	80.006	19.994	103.363	20.109	2.245	0.470
123.499	145.157	80.005	19.994	103.362	20.109	2.215	0.475
123.999	145.404	80.006	19.995	103.361	20.109	2.202	0.495
124.499	145.623	80.006	19.994	103.363	20.109	2.182	0.483
124.999	145.865	80.005	19.994	103.365	20.108	2.279	0.464
125.499	146.127	80.004	19.995	103.369	20.108	2.312	0.483
125.999	146.368	80.003	19.994	103.369	20.106	2.389	0.503
126.500	146.597	80.005	19.994	103.368	20.108	2.294	0.486
127.000	146.812	80.005	19.994	103.365	20.108	2.261	0.457
127.499	147.048	80.003	19.995	103.360	20.109	2.212	0.448
127.999	147.306	80.005	19.995	103.358	20.110	2.146	0.472
128.500	147.567	80.004	19.995	103.356	20.110	2.140	0.507
129.000	147.803	80.003	19.995	103.358	20.108	2.292	0.508
129.500	148.016	80.003	19.995	103.361	20.108	2.267	0.473
130.000	148.295	80.003	19.995	103.365	20.109	2.248	0.471
130.500	148.575	80.004	19.995	103.367	20.113	1.958	0.526
131.000	148.769	80.004	19.995	103.368	20.112	2.037	0.516
131.500	149.016	80.004	19.995	103.369	20.108	2.292	0.457
132.000	149.271	80.003	19.995	103.367	20.109	2.195	0.472
132.500	149.515	80.004	19.994	103.365	20.110	2.173	0.501
133.000	149.763	80.004	19.996	103.362	20.108	2.290	0.495
133.500	150.009	80.004	19.996	103.362	20.111	2.070	0.493
134.000	150.293	80.003	19.994	103.360	20.109	2.213	0.512
134.500	150.533	80.004	19.995	103.360	20.111	2.083	0.527
135.000	150.727	80.004	19.995	103.360	20.110	2.140	0.479
135.500	151.013	80.004	19.995	103.358	20.110	2.120	0.457
136.000	151.249	80.006	19.995	103.354	20.108	2.279	0.501
136.500	151.534	80.005	19.994	103.355	20.111	2.090	0.522
137.000	151.715	80.005	19.995	103.356	20.110	2.171	0.494
137.500	152.007	80.006	19.995	103.358	20.113	1.965	0.469
138.000	152.266	80.006	19.996	103.363	20.115	1.797	0.512
138.500	152.490	80.005	19.994	103.365	20.111	2.053	0.517
139.000	152.730	80.006	19.995	103.366	20.111	2.063	0.473
139.500	152.992	80.005	19.995	103.366	20.114	1.875	0.483
140.000	153.233	80.006	19.996	103.364	20.112	1.998	0.503
140.500	153.523	80.006	19.995	103.360	20.113	1.921	0.518
141.000	153.747	80.005	19.995	103.358	20.114	1.890	0.523
141.500	153.988	80.005	19.995	103.354	20.113	1.965	0.489
142.000	154.223	80.006	19.994	103.352	20.114	1.853	0.470
142.500	154.446	80.006	19.995	103.350	20.114	1.864	0.467
143.000	154.682	80.006	19.995	103.353	20.117	1.648	0.459
143.500	154.958	80.006	19.995	103.351	20.113	1.936	0.486
144.000	155.213	80.007	19.995	103.353	20.112	2.042	0.522
144.500	155.427	80.006	19.995	103.355	20.115	1.818	0.500
145.000	155.706	80.006	19.994	103.357	20.112	2.029	0.481
145.500	155.918	80.005	19.995	103.355	20.113	1.921	0.492
146.000	156.190	80.007	19.996	103.359	20.113	1.952	0.487
146.500	156.418	80.007	19.995	103.358	20.112	2.004	0.492
147.000	156.702	80.007	19.995	103.357	20.114	1.881	0.506
147.500	156.958	80.008	19.995	103.354	20.113	1.921	0.526
148.000	157.161	80.006	19.995	103.354	20.115	1.813	0.500
148.500	157.462	80.008	19.995	103.355	20.112	2.018	0.482
149.000	157.688	80.008	19.995	103.352	20.113	1.945	0.515
149.500	157.938	80.008	19.996	103.348	20.114	1.890	0.501
150.000	158.174	80.007	19.995	103.346	20.116	1.749	0.481
150.500	158.441	80.006	19.996	103.341	20.117	1.673	0.495
151.000	158.669	80.007	19.996	103.334	20.116	1.750	0.499
151.500	158.988	80.006	19.996	103.338	20.117	1.708	0.521
152.000	159.196	80.007	19.997	103.342	20.112	2.037	0.537
152.500	159.439	80.007	19.995	103.348	20.114	1.893	0.489
153.000	159.653	80.005	19.996	103.349	20.113	1.958	0.454
153.500	159.882	80.008	19.995	103.349	20.112	2.016	0.450
154.000	160.181	80.007	19.996	103.346	20.114	1.871	0.485
154.500	160.438	80.007	19.996	103.339	20.114	1.890	0.542
155.000	160.739	80.005	19.996	103.335	20.116	1.741	0.557
155.500	160.967	80.006	19.996	103.332	20.113	1.932	0.543
156.000	161.216	80.006	19.995	103.332	20.110	2.147	0.503
156.500	161.405	80.006	19.997	103.331	20.110	2.130	0.458
157.000	161.708	80.006	19.996	103.334	20.115	1.833	0.465
157.500	161.955	80.004	19.996	103.333	20.113	1.972	0.521
158.000	162.207	80.003	19.995	103.332	20.114	1.853	0.524
158.500	162.460	80.006	19.994	103.333	20.110	2.125	0.501
159.000	162.686	80.005	19.996	103.333	20.113	1.937	0.492
159.500	162.964	80.007	19.996	103.332	20.115	1.787	0.492
160.000	163.198	80.006	19.995	103.336	20.115	1.844	0.508
160.500	163.447	80.004	19.995	103.341	20.115	1.838	0.497
161.000	163.697	80.006	19.997	103.342	20.112	1.991	0.491
161.500	163.935	80.006	19.996	103.341	20.114	1.901	0.494
162.000	164.230	80.005	19.996	103.337	20.115	1.831	0.511
162.500	164.491	80.006	19.995	103.333	20.117	1.664	0.544
163.000	164.744	80.005	19.996	103.328	20.115	1.811	0.535
163.500	164.981	80.005	19.995	103.327	20.113	1.965	0.502
164.000	165.231	80.007	19.996	103.326	20.114	1.849	0.489
164.500	165.484	80.006	19.996	103.326	20.114	1.906	0.495
165.000	165.771	80.007	19.995	103.327	20.114	1.877	0.522
165.500	166.003	80.006	19.995	103.326	20.115	1.802	0.529
166.000	166.240	80.007	19.997	103.326	20.116	1.717	0.494
166.500	166.504	80.006	19.997	103.327	20.117	1.649	0.485
167.000	166.742	80.008	19.996	103.326	20.120	1.475	0.501
167.500	167.014	80.007	19.995	103.325	20.115	1.789	0.506
168.000	167.220	80.007	19.995	103.324	20.116	1.726	0.494
168.500	167.498	80.007	19.995	103.324	20.115	1.792	0.481
169.000	167.727	80.008	19.995	103.326	20.118	1.602	0.496
169.500	167.991	80.006	19.995	103.328	20.116	1.747	0.500
170.000	168.238	80.005	19.994	103.329	20.118	1.607	0.502
170.500	168.483	80.007	19.994	103.329	20.117	1.673	0.501
171.000	168.738	80.007	19.995	103.329	20.119	1.558	0.496
171.500	169.000	80.009	19.995	103.328	20.118	1.583	0.508
172.000	169.275	80.008	19.994	103.325	20.117	1.701	0.527
