Sample ID:	C:\MCC\MCC Cal\Test\Coaxial_Cable_MCC_30K_min_220113_R3.txt
Sample Weight (mg):	4.71
Heating Rate (C/s):	0.5
Combustor Temp (C):	900
N2 Flow Rate (cc/min):	80
O2 Flow Rate (cc/min):	20
Calibration File:	C:\MCC\MCC Cal\Coeff1 JN10440_30_210304.txt.txt
T Correction Coefficients:	0	1.024463	0
Time Shift (s):	14
*
Time (s)	Temperature (C)	N2 flow rate (cc/min)	O2 flow rate (cc/min)	Flow Rate (cc/min)	Oxygen (%)	HRR (W/g)	Heating rate (C/s)
0.000	112.749	80.010	19.992	104.326	20.106	-0.067	-0.027
0.499	112.734	80.010	19.995	104.326	20.105	-0.002	0.029
1.000	112.736	80.010	19.994	104.326	20.105	-0.056	0.017
1.500	112.736	80.010	19.994	104.326	20.105	-0.048	-0.006
2.000	112.725	80.011	19.994	104.323	20.106	-0.100	-0.005
2.500	112.713	80.009	19.994	104.317	20.107	-0.174	-0.017
2.999	112.714	80.010	19.993	104.315	20.107	-0.140	-0.017
3.499	112.684	80.011	19.994	104.314	20.107	-0.144	-0.020
3.999	112.729	80.011	19.994	104.313	20.107	-0.191	-0.007
4.499	112.712	80.009	19.994	104.316	20.107	-0.195	0.021
4.999	112.717	80.009	19.993	104.321	20.108	-0.232	0.008
5.499	112.718	80.010	19.993	104.323	20.108	-0.270	-0.003
6.000	112.732	80.011	19.992	104.324	20.109	-0.299	0.011
6.499	112.741	80.010	19.993	104.322	20.111	-0.423	0.018
6.999	112.723	80.009	19.994	104.321	20.109	-0.287	0.007
7.499	112.702	80.009	19.993	104.318	20.109	-0.293	-0.024
8.000	112.720	80.010	19.993	104.313	20.111	-0.440	-0.021
8.500	112.739	80.010	19.994	104.310	20.110	-0.368	0.018
9.000	112.693	80.010	19.992	104.314	20.108	-0.226	0.005
9.499	112.693	80.009	19.993	104.315	20.108	-0.239	-0.037
9.999	112.697	80.009	19.993	104.320	20.106	-0.105	-0.022
10.500	112.737	80.009	19.994	104.326	20.108	-0.216	0.024
11.000	112.739	80.009	19.993	104.330	20.106	-0.109	0.043
11.500	112.694	80.009	19.993	104.331	20.107	-0.193	-0.000
12.000	112.731	80.010	19.993	104.332	20.106	-0.123	-0.025
12.500	112.719	80.010	19.993	104.332	20.106	-0.071	0.009
12.999	112.733	80.009	19.994	104.332	20.106	-0.065	0.014
13.499	112.731	80.009	19.993	104.330	20.107	-0.132	0.007
13.999	112.732	80.009	19.994	104.325	20.106	-0.090	0.006
14.499	112.760	80.009	19.994	104.315	20.105	-0.048	0.014
14.999	112.765	80.008	19.994	104.306	20.105	-0.044	0.031
15.499	112.739	80.009	19.994	104.297	20.102	0.159	0.006
15.999	112.743	80.010	19.994	104.293	20.104	0.057	-0.022
16.499	112.774	80.010	19.993	104.296	20.104	0.073	0.006
16.999	112.803	80.009	19.994	104.304	20.105	-0.023	0.047
17.499	112.806	80.011	19.994	104.314	20.102	0.148	0.046
18.000	112.831	80.009	19.994	104.322	20.103	0.082	0.030
18.499	112.789	80.010	19.994	104.332	20.103	0.079	0.006
18.999	112.797	80.011	19.992	104.335	20.104	0.050	-0.025
19.500	112.815	80.010	19.993	104.336	20.104	0.023	-0.004
20.000	112.862	80.009	19.993	104.336	20.102	0.171	0.046
20.499	112.821	80.011	19.994	104.339	20.101	0.278	0.035
20.999	112.888	80.011	19.993	104.343	20.100	0.310	0.016
21.499	112.836	80.010	19.994	104.352	20.098	0.483	0.020
21.999	112.880	80.010	19.993	104.360	20.099	0.370	0.004
22.499	112.910	80.011	19.994	104.368	20.097	0.535	0.033
23.000	112.913	80.011	19.995	104.376	20.097	0.529	0.053
23.499	112.955	80.011	19.998	104.382	20.092	0.849	0.039
23.999	112.949	80.011	19.997	104.387	20.096	0.583	0.041
24.499	112.957	80.011	19.995	104.395	20.092	0.887	0.019
24.999	112.963	80.010	19.994	104.401	20.091	0.974	0.008
25.499	113.007	80.011	19.994	104.405	20.090	0.979	0.032
25.999	113.029	80.012	19.994	104.405	20.091	0.968	0.058
26.499	113.035	80.011	19.995	104.405	20.088	1.119	0.047
26.999	113.074	80.010	19.995	104.406	20.091	0.974	0.036
27.499	113.117	80.010	19.994	104.412	20.089	1.079	0.064
27.999	113.145	80.011	19.995	104.414	20.089	1.076	0.077
28.499	113.156	80.012	19.994	104.412	20.086	1.296	0.055
28.999	113.218	80.012	19.994	104.409	20.087	1.242	0.056
29.499	113.226	80.010	19.993	104.407	20.086	1.298	0.071
29.999	113.277	80.010	19.993	104.403	20.085	1.331	0.065
30.499	113.325	80.011	19.993	104.403	20.086	1.275	0.079
30.999	113.337	80.010	19.993	104.408	20.083	1.478	0.079
31.499	113.405	80.009	19.994	104.411	20.083	1.496	0.070
31.999	113.457	80.008	19.995	104.419	20.082	1.538	0.100
32.499	113.514	80.010	19.993	104.427	20.083	1.524	0.115
32.999	113.536	80.010	19.993	104.435	20.084	1.406	0.094
33.499	113.636	80.010	19.994	104.442	20.083	1.478	0.101
33.999	113.673	80.009	19.994	104.449	20.083	1.498	0.130
34.500	113.732	80.010	19.993	104.448	20.085	1.335	0.117
34.999	113.755	80.010	19.994	104.447	20.084	1.419	0.089
35.499	113.789	80.009	19.993	104.447	20.083	1.465	0.070
35.999	113.878	80.010	19.994	104.446	20.084	1.436	0.090
36.499	113.936	80.010	19.994	104.445	20.081	1.657	0.135
37.000	113.983	80.010	19.993	104.448	20.083	1.517	0.126
37.500	114.050	80.010	19.994	104.454	20.083	1.526	0.110
38.000	114.091	80.009	19.994	104.460	20.083	1.467	0.111
38.499	114.150	80.010	19.993	104.462	20.082	1.557	0.104
38.999	114.219	80.010	19.994	104.468	20.082	1.550	0.114
39.499	114.269	80.010	19.994	104.473	20.082	1.588	0.124
39.999	114.351	80.012	19.993	104.476	20.080	1.707	0.126
40.499	114.456	80.009	19.993	104.478	20.079	1.759	0.159
40.999	114.519	80.009	19.993	104.485	20.081	1.638	0.178
41.499	114.571	80.011	19.993	104.489	20.079	1.780	0.141
41.999	114.636	80.010	19.993	104.491	20.082	1.586	0.116
42.499	114.683	80.010	19.993	104.491	20.080	1.698	0.114
42.999	114.794	80.011	19.994	104.491	20.081	1.615	0.135
43.499	114.819	80.010	19.993	104.491	20.082	1.544	0.147
43.999	114.925	80.011	19.993	104.490	20.081	1.655	0.134
44.499	114.996	80.011	19.993	104.492	20.078	1.853	0.154
44.999	115.095	80.010	19.993	104.496	20.084	1.446	0.173
45.499	115.121	80.011	19.994	104.497	20.079	1.746	0.148
45.999	115.212	80.010	19.994	104.499	20.080	1.700	0.122
46.499	115.297	80.011	19.994	104.499	20.083	1.483	0.146
46.999	115.393	80.009	19.994	104.497	20.077	1.897	0.178
47.499	115.492	80.010	19.993	104.494	20.079	1.746	0.188
47.999	115.550	80.010	19.994	104.494	20.079	1.751	0.176
48.499	115.676	80.010	19.994	104.495	20.081	1.604	0.170
48.999	115.751	80.011	19.993	104.497	20.077	1.895	0.193
49.499	115.820	80.011	19.994	104.500	20.077	1.901	0.173
49.999	115.937	80.010	19.993	104.502	20.078	1.834	0.165
50.499	116.026	80.010	19.993	104.506	20.080	1.705	0.196
50.999	116.113	80.011	19.993	104.504	20.075	2.035	0.191
51.499	116.166	80.011	19.993	104.507	20.077	1.905	0.158
51.999	116.333	80.012	19.993	104.511	20.076	1.960	0.180
52.499	116.392	80.011	19.993	104.513	20.078	1.872	0.223
52.999	116.485	80.011	19.993	104.513	20.076	1.989	0.189
53.499	116.583	80.010	19.994	104.519	20.080	1.709	0.171
53.999	116.675	80.012	19.993	104.521	20.072	2.250	0.190
54.499	116.774	80.011	19.994	104.522	20.076	1.966	0.190
54.999	116.916	80.010	19.993	104.525	20.077	1.887	0.216
55.499	117.014	80.010	19.994	104.526	20.077	1.907	0.241
55.999	117.125	80.011	19.994	104.526	20.075	2.043	0.225
56.499	117.228	80.009	19.995	104.526	20.075	2.081	0.212
56.999	117.360	80.011	19.994	104.525	20.078	1.874	0.225
57.499	117.448	80.010	19.994	104.524	20.076	1.999	0.227
57.999	117.568	80.010	19.993	104.524	20.077	1.893	0.214
58.499	117.711	80.009	19.993	104.524	20.073	2.216	0.235
58.999	117.840	80.009	19.994	104.522	20.075	2.058	0.267
59.500	117.956	80.010	19.993	104.521	20.073	2.200	0.259
60.000	118.048	80.007	19.994	104.521	20.074	2.131	0.226
60.499	118.137	80.008	19.996	104.519	20.075	2.028	0.194
60.999	118.330	80.010	19.995	104.519	20.073	2.173	0.232
61.499	118.416	80.010	19.993	104.520	20.075	2.062	0.280
61.999	118.528	80.009	19.993	104.522	20.072	2.250	0.239
62.499	118.631	80.009	19.993	104.523	20.073	2.156	0.207
62.999	118.781	80.008	19.993	104.524	20.073	2.193	0.234
63.499	118.893	80.010	19.993	104.524	20.075	2.022	0.257
63.999	119.024	80.010	19.993	104.523	20.073	2.219	0.252
64.499	119.171	80.009	19.993	104.523	20.072	2.252	0.261
64.999	119.232	80.009	19.992	104.524	20.074	2.087	0.243
65.499	119.388	80.010	19.993	104.523	20.072	2.233	0.213
65.999	119.538	80.008	19.993	104.524	20.074	2.108	0.262
66.499	119.678	80.009	19.993	104.523	20.071	2.335	0.298
66.999	119.781	80.008	19.993	104.523	20.071	2.292	0.266
67.499	119.933	80.008	19.993	104.523	20.069	2.457	0.249
67.999	120.069	80.009	19.993	104.524	20.073	2.175	0.272
68.499	120.192	80.009	19.993	104.524	20.069	2.436	0.273
69.000	120.297	80.009	19.994	104.525	20.069	2.471	0.243
69.499	120.436	80.009	19.993	104.525	20.071	2.360	0.236
69.999	120.629	80.008	19.992	104.525	20.071	2.337	0.288
70.499	120.708	80.010	19.993	104.526	20.070	2.415	0.302
70.999	120.847	80.009	19.993	104.526	20.072	2.241	0.245
71.499	120.992	80.010	19.993	104.527	20.072	2.235	0.251
71.999	121.147	80.009	19.994	104.527	20.073	2.206	0.292
72.499	121.289	80.010	19.994	104.528	20.072	2.276	0.299
72.999	121.414	80.010	19.993	104.528	20.071	2.314	0.282
73.499	121.558	80.010	19.993	104.528	20.070	2.419	0.268
73.999	121.685	80.010	19.993	104.528	20.072	2.289	0.270
74.499	121.870	80.010	19.994	104.528	20.071	2.319	0.291
74.999	121.969	80.009	19.994	104.528	20.072	2.277	0.298
75.499	122.170	80.009	19.994	104.529	20.067	2.590	0.292
75.999	122.312	80.009	19.996	104.530	20.072	2.260	0.321
76.499	122.466	80.009	19.993	104.531	20.072	2.281	0.319
76.999	122.611	80.010	19.994	104.531	20.072	2.291	0.298
77.499	122.764	80.010	19.994	104.532	20.070	2.377	0.299
77.999	122.919	80.011	19.994	104.531	20.071	2.354	0.303
78.500	123.069	80.010	19.993	104.531	20.068	2.550	0.306
78.999	123.194	80.010	19.993	104.535	20.068	2.563	0.290
79.499	123.377	80.008	19.994	104.536	20.069	2.464	0.292
80.000	123.486	80.010	19.994	104.535	20.067	2.629	0.300
80.499	123.639	80.010	19.994	104.534	20.066	2.646	0.277
80.999	123.815	80.010	19.994	104.536	20.067	2.636	0.296
81.499	123.948	80.009	19.994	104.536	20.066	2.682	0.319
81.999	124.083	80.010	19.994	104.539	20.069	2.475	0.289
82.500	124.248	80.009	19.993	104.542	20.070	2.387	0.284
82.999	124.426	80.011	19.993	104.549	20.068	2.502	0.321
83.499	124.602	80.010	19.993	104.550	20.067	2.592	0.348
83.999	124.777	80.009	19.993	104.548	20.070	2.367	0.353
84.499	124.949	80.009	19.993	104.548	20.069	2.494	0.349
84.999	125.117	80.009	19.994	104.545	20.067	2.578	0.343
85.499	125.267	80.010	19.994	104.538	20.066	2.692	0.329
85.999	125.422	80.009	19.994	104.535	20.068	2.517	0.312
86.499	125.575	80.009	19.993	104.533	20.068	2.525	0.307
86.999	125.753	80.009	19.993	104.530	20.065	2.707	0.319
87.499	125.926	80.009	19.993	104.534	20.067	2.634	0.341
88.000	126.084	80.009	19.993	104.537	20.067	2.594	0.341
88.499	126.229	80.009	19.993	104.542	20.067	2.628	0.317
88.999	126.424	80.008	19.993	104.547	20.070	2.387	0.321
89.499	126.567	80.009	19.994	104.550	20.070	2.391	0.339
89.999	126.776	80.008	19.993	104.551	20.068	2.540	0.345
90.500	126.937	80.008	19.993	104.551	20.068	2.542	0.361
91.000	127.080	80.009	19.994	104.549	20.065	2.732	0.337
91.499	127.272	80.009	19.994	104.551	20.069	2.454	0.320
91.999	127.447	80.009	19.993	104.553	20.068	2.534	0.351
92.499	127.610	80.010	19.993	104.550	20.065	2.726	0.353
92.999	127.779	80.008	19.992	104.548	20.065	2.713	0.335
93.499	127.958	80.009	19.993	104.545	20.066	2.638	0.340
93.999	128.111	80.009	19.993	104.541	20.067	2.604	0.340
94.499	128.310	80.009	19.993	104.538	20.068	2.558	0.342
94.999	128.498	80.008	19.993	104.538	20.067	2.610	0.369
95.499	128.646	80.009	19.993	104.539	20.068	2.537	0.361
95.999	128.849	80.009	19.993	104.540	20.065	2.719	0.344
96.499	129.013	80.009	19.993	104.541	20.073	2.203	0.359
97.000	129.218	80.008	19.993	104.543	20.069	2.456	0.368
97.500	129.410	80.009	19.993	104.546	20.069	2.439	0.383
97.999	129.563	80.009	19.993	104.548	20.069	2.483	0.371
98.499	129.762	80.009	19.994	104.547	20.069	2.451	0.348
98.999	129.949	80.009	19.993	104.547	20.068	2.556	0.369
99.499	130.137	80.009	19.993	104.546	20.070	2.372	0.380
99.999	130.313	80.010	19.993	104.544	20.071	2.334	0.369
100.499	130.453	80.009	19.993	104.544	20.070	2.397	0.340
100.999	130.647	80.010	19.992	104.545	20.072	2.291	0.325
101.499	130.890	80.010	19.993	104.542	20.068	2.568	0.385
102.000	131.038	80.010	19.992	104.541	20.065	2.775	0.414
102.500	131.211	80.009	19.993	104.539	20.067	2.600	0.356
102.999	131.428	80.011	19.993	104.538	20.068	2.562	0.356
103.499	131.623	80.008	19.992	104.538	20.066	2.658	0.401
104.000	131.802	80.011	19.992	104.542	20.066	2.683	0.393
104.499	131.983	80.010	19.992	104.547	20.068	2.552	0.367
104.999	132.169	80.010	19.992	104.548	20.069	2.476	0.363
105.499	132.359	80.010	19.993	104.551	20.066	2.702	0.372
105.999	132.556	80.012	19.993	104.557	20.067	2.593	0.382
106.499	132.731	80.011	19.993	104.559	20.069	2.447	0.380
106.999	132.924	80.010	19.993	104.559	20.068	2.535	0.370
107.499	133.111	80.010	19.993	104.562	20.067	2.604	0.374
107.999	133.262	80.010	19.993	104.565	20.067	2.625	0.359
108.499	133.470	80.011	19.993	104.564	20.064	2.834	0.348
108.999	133.687	80.011	19.992	104.566	20.066	2.664	0.392
109.499	133.879	80.011	19.993	104.565	20.066	2.700	0.417
109.999	134.083	80.010	19.993	104.566	20.064	2.798	0.403
110.499	134.298	80.010	19.993	104.567	20.065	2.733	0.408
110.999	134.489	80.011	19.992	104.569	20.064	2.779	0.412
111.499	134.661	80.009	19.993	104.569	20.064	2.823	0.384
111.999	134.868	80.008	19.993	104.569	20.062	2.940	0.371
112.499	135.071	80.010	19.993	104.568	20.062	2.928	0.395
112.999	135.281	80.010	19.993	104.568	20.064	2.781	0.412
113.499	135.480	80.010	19.992	104.568	20.066	2.673	0.411
113.999	135.672	80.010	19.993	104.568	20.065	2.735	0.400
114.499	135.889	80.010	19.994	104.568	20.067	2.600	0.400
115.000	136.084	80.009	19.993	104.568	20.061	2.999	0.411
115.499	136.286	80.009	19.993	104.568	20.065	2.767	0.404
115.999	136.462	80.009	19.993	104.568	20.062	2.963	0.387
116.500	136.689	80.009	19.993	104.568	20.062	2.953	0.391
116.999	136.922	80.009	19.994	104.568	20.062	2.965	0.431
117.499	137.099	80.009	19.993	104.568	20.063	2.865	0.435
117.999	137.298	80.009	19.993	104.568	20.062	2.938	0.393
118.499	137.507	80.008	19.993	104.568	20.065	2.725	0.392
118.999	137.735	80.009	19.993	104.567	20.063	2.859	0.423
119.500	137.930	80.009	19.993	104.567	20.065	2.734	0.430
120.000	138.137	80.008	19.992	104.567	20.068	2.548	0.412
120.499	138.362	80.008	19.996	104.568	20.064	2.821	0.417
120.999	138.594	80.009	19.995	104.569	20.063	2.861	0.445
121.499	138.814	80.009	19.995	104.569	20.065	2.729	0.455
121.999	139.007	80.009	19.994	104.569	20.065	2.775	0.432
122.499	139.228	80.008	19.994	104.567	20.067	2.583	0.413
122.999	139.435	80.010	19.994	104.567	20.064	2.781	0.421
123.499	139.634	80.009	19.994	104.565	20.065	2.775	0.417
123.999	139.861	80.010	19.994	104.565	20.065	2.719	0.416
124.499	140.006	80.009	19.994	104.565	20.064	2.807	0.399
124.999	140.294	80.011	19.994	104.565	20.065	2.708	0.402
125.499	140.505	80.010	19.993	104.565	20.065	2.733	0.466
125.999	140.713	80.010	19.994	104.565	20.066	2.692	0.459
126.499	140.925	80.010	19.993	104.564	20.065	2.717	0.419
126.999	141.141	80.011	19.994	104.564	20.065	2.725	0.424
127.499	141.381	80.009	19.993	104.564	20.065	2.767	0.442
127.999	141.596	80.011	19.995	104.564	20.067	2.619	0.455
128.499	141.809	80.011	19.994	104.564	20.063	2.850	0.442
128.999	142.050	80.011	19.994	104.564	20.064	2.804	0.441
129.499	142.278	80.011	19.993	104.564	20.061	3.011	0.461
129.999	142.496	80.011	19.993	104.564	20.064	2.840	0.457
130.499	142.669	80.011	19.991	104.564	20.059	3.130	0.418
130.999	142.899	80.012	19.993	104.564	20.065	2.748	0.397
131.499	143.150	80.011	19.993	104.564	20.061	3.015	0.442
131.999	143.378	80.011	19.993	104.565	20.062	2.961	0.480
132.499	143.646	80.012	19.994	104.564	20.064	2.794	0.487
132.999	143.881	80.010	19.992	104.564	20.065	2.777	0.500
133.499	144.117	80.013	19.994	104.563	20.064	2.784	0.487
133.999	144.301	80.011	19.994	104.563	20.066	2.673	0.446
134.499	144.540	80.012	19.993	104.564	20.066	2.652	0.422
135.000	144.769	80.010	19.993	104.565	20.064	2.790	0.445
135.500	145.013	80.011	19.992	104.565	20.067	2.585	0.470
135.999	145.233	80.011	19.993	104.566	20.066	2.663	0.469
136.499	145.516	80.011	19.993	104.566	20.065	2.756	0.484
136.999	145.704	80.011	19.993	104.565	20.064	2.813	0.488
137.499	145.899	80.011	19.994	104.564	20.063	2.888	0.427
137.999	146.176	80.010	19.993	104.564	20.064	2.815	0.427
138.499	146.386	80.010	19.993	104.563	20.067	2.591	0.479
139.000	146.611	80.011	19.993	104.564	20.066	2.696	0.461
139.499	146.860	80.011	19.994	104.564	20.066	2.639	0.454
139.999	147.053	80.010	19.993	104.564	20.066	2.654	0.458
140.499	147.310	80.010	19.993	104.564	20.065	2.738	0.446
140.999	147.553	80.011	19.994	104.565	20.065	2.719	0.475
141.499	147.800	80.009	19.994	104.564	20.065	2.740	0.495
141.999	148.014	80.009	19.995	104.564	20.066	2.665	0.475
142.499	148.235	80.009	19.994	104.564	20.064	2.782	0.448
142.999	148.458	80.010	19.995	104.564	20.066	2.698	0.439
143.499	148.749	80.009	19.994	104.564	20.065	2.754	0.479
143.999	148.945	80.008	19.994	104.564	20.064	2.783	0.501
144.499	149.196	80.009	19.995	104.564	20.064	2.804	0.467
144.999	149.419	80.008	19.994	104.564	20.066	2.656	0.460
145.499	149.717	80.009	19.994	104.564	20.064	2.825	0.497
145.999	149.896	80.007	19.995	104.564	20.065	2.719	0.499
146.500	150.201	80.008	19.994	104.564	20.064	2.796	0.481
147.000	150.383	80.009	19.995	104.564	20.065	2.717	0.486
147.499	150.659	80.008	19.994	104.564	20.063	2.863	0.473
147.999	150.889	80.008	19.995	104.564	20.065	2.744	0.482
148.499	151.106	80.010	19.994	104.564	20.065	2.742	0.476
148.999	151.387	80.009	19.995	104.563	20.063	2.907	0.472
149.499	151.599	80.007	19.994	104.564	20.062	2.946	0.496
149.999	151.867	80.008	19.995	104.564	20.065	2.733	0.487
150.499	152.066	80.008	19.994	104.564	20.064	2.794	0.473
150.999	152.320	80.009	19.995	104.564	20.063	2.871	0.460
151.500	152.558	80.008	19.995	104.564	20.062	2.936	0.472
152.000	152.834	80.008	19.995	104.564	20.062	2.976	0.503
152.499	153.087	80.008	19.994	104.565	20.064	2.786	0.522
152.999	153.310	80.008	19.994	104.565	20.063	2.909	0.503
153.499	153.558	80.008	19.994	104.565	20.065	2.715	0.474
153.999	153.803	80.008	19.994	104.566	20.065	2.723	0.482
154.499	154.042	80.008	19.995	104.567	20.064	2.813	0.488
154.999	154.297	80.008	19.994	104.566	20.064	2.813	0.489
155.499	154.497	80.008	19.994	104.566	20.064	2.846	0.475
155.999	154.751	80.009	19.994	104.566	20.063	2.848	0.454
156.499	154.996	80.010	19.993	104.566	20.063	2.850	0.476
157.000	155.249	80.008	19.995	104.565	20.062	2.919	0.499
157.500	155.438	80.008	19.993	104.565	20.060	3.090	0.470
158.000	155.726	80.009	19.994	104.565	20.062	2.921	0.459
158.499	155.982	80.009	19.994	104.565	20.065	2.738	0.510
158.999	156.209	80.008	19.993	104.566	20.063	2.909	0.513
159.499	156.452	80.009	19.993	104.566	20.062	2.953	0.477
159.999	156.727	80.009	19.993	104.566	20.063	2.898	0.494
160.499	156.966	80.009	19.993	104.566	20.062	2.934	0.516
160.999	157.194	80.009	19.993	104.567	20.062	2.976	0.490
161.499	157.443	80.009	19.993	104.568	20.061	3.042	0.472
161.999	157.670	80.009	19.993	104.569	20.063	2.848	0.476
162.499	157.936	80.008	19.992	104.569	20.062	2.942	0.485
162.999	158.191	80.009	19.993	104.570	20.062	2.965	0.507
163.499	158.437	80.008	19.993	104.570	20.060	3.107	0.511
163.999	158.696	80.009	19.993	104.569	20.060	3.088	0.503
164.499	158.947	80.009	19.993	104.569	20.061	3.038	0.508
164.999	159.187	80.009	19.994	104.569	20.062	2.917	0.500
165.499	159.404	80.009	19.993	104.568	20.060	3.070	0.474
165.999	159.682	80.008	19.993	104.569	20.061	3.030	0.476
166.499	159.909	80.009	19.992	104.568	20.060	3.101	0.500
166.999	160.140	80.008	19.993	104.568	20.060	3.068	0.481
167.499	160.437	80.009	19.994	104.568	20.060	3.107	0.493
167.999	160.673	80.009	19.993	104.568	20.059	3.180	0.531
168.499	160.921	80.010	19.992	104.568	20.061	3.024	0.509
169.000	161.207	80.009	19.993	104.567	20.058	3.207	0.509
169.499	161.413	80.009	19.993	104.567	20.059	3.136	0.513
169.999	161.671	80.009	19.993	104.567	20.059	3.161	0.478
170.499	161.947	80.008	19.993	104.567	20.058	3.260	0.499
170.999	162.208	80.009	19.993	104.566	20.058	3.260	0.535
171.499	162.396	80.008	19.992	104.565	20.059	3.178	0.493
172.000	162.660	80.009	19.994	104.565	20.062	2.948	0.451
172.499	162.915	80.009	19.994	104.564	20.061	3.032	0.486
