Sample ID:	C:\MCC\MCC Cal\Test\Excelsior_MCC_30K_min_220216_R2.txt
Sample Weight (mg):	4.38
Heating Rate (C/s):	0.5
Combustor Temp (C):	900
N2 Flow Rate (cc/min):	80
O2 Flow Rate (cc/min):	20
Calibration File:	C:\MCC\MCC Cal\Coeff1 JN10440_30_210304.txt.txt
T Correction Coefficients:	0	1.024463	0
Time Shift (s):	14
*
Time (s)	Temperature (C)	N2 flow rate (cc/min)	O2 flow rate (cc/min)	Flow Rate (cc/min)	Oxygen (%)	HRR (W/g)	Heating rate (C/s)
0.001	113.092	80.011	19.993	103.727	19.970	-0.106	-0.024
0.500	113.091	80.010	19.993	103.723	19.969	-0.016	-0.014
1.000	113.105	80.011	19.994	103.720	19.968	0.092	-0.000
1.500	113.105	80.012	19.994	103.721	19.967	0.170	0.013
1.999	113.148	80.010	19.994	103.724	19.967	0.154	0.028
2.499	113.043	80.011	19.994	103.726	19.967	0.116	-0.010
2.999	113.076	80.012	19.993	103.726	19.967	0.114	-0.067
3.499	113.115	80.010	19.992	103.722	19.970	-0.070	0.000
4.000	113.110	80.011	19.993	103.715	19.969	-0.006	0.053
4.500	113.087	80.011	19.994	103.712	19.970	-0.078	0.003
5.000	113.089	80.012	19.993	103.713	19.969	-0.018	-0.025
5.501	113.101	80.012	19.993	103.711	19.967	0.166	-0.004
6.001	113.093	80.010	19.994	103.714	19.970	-0.040	0.009
6.501	113.107	80.010	19.993	103.720	19.968	0.038	0.005
7.001	113.116	80.012	19.993	103.723	19.969	-0.026	0.015
7.501	113.100	80.013	19.993	103.725	19.967	0.142	0.008
8.000	113.089	80.012	19.993	103.727	19.970	-0.076	-0.017
8.500	113.120	80.011	19.993	103.726	19.967	0.152	-0.004
9.000	113.093	80.012	19.993	103.725	19.968	0.040	0.012
9.500	113.071	80.012	19.994	103.723	19.971	-0.138	-0.022
10.000	113.086	80.011	19.993	103.724	19.969	-0.022	-0.028
10.500	113.102	80.012	19.993	103.728	19.969	0.012	0.011
11.000	113.099	80.012	19.993	103.731	19.970	-0.050	0.022
11.499	113.067	80.011	19.993	103.731	19.968	0.062	-0.011
11.999	113.041	80.012	19.993	103.733	19.971	-0.128	-0.046
12.499	113.057	80.012	19.993	103.732	19.968	0.076	-0.034
13.000	113.052	80.013	19.993	103.731	19.971	-0.166	0.000
13.501	113.080	80.012	19.993	103.733	19.972	-0.190	0.017
14.001	113.047	80.015	19.993	103.731	19.969	-0.030	0.009
14.500	113.084	80.013	19.993	103.726	19.967	0.126	0.000
14.999	113.071	80.013	19.992	103.720	19.968	0.060	0.014
15.499	113.058	80.013	19.993	103.716	19.970	-0.066	-0.001
15.999	113.039	80.013	19.993	103.709	19.969	-0.014	-0.030
16.500	113.046	80.013	19.992	103.708	19.969	0.018	-0.022
17.000	113.017	80.013	19.992	103.714	19.968	0.042	-0.017
17.499	113.057	80.013	19.992	103.721	19.968	0.048	-0.005
17.999	113.063	80.012	19.993	103.724	19.966	0.212	0.029
18.499	113.028	80.014	19.993	103.725	19.964	0.351	0.009
18.999	113.024	80.014	19.993	103.724	19.966	0.202	-0.034
19.500	113.041	80.013	19.992	103.722	19.967	0.180	-0.013
20.001	113.046	80.012	19.992	103.723	19.967	0.154	0.018
20.500	113.080	80.013	19.992	103.727	19.966	0.212	0.031
21.000	113.022	80.011	19.991	103.731	19.967	0.154	0.008
21.501	113.026	80.013	19.995	103.736	19.970	-0.088	-0.039
22.000	113.023	80.012	19.996	103.738	19.967	0.176	-0.026
22.499	113.026	80.012	19.996	103.739	19.967	0.140	0.000
22.999	113.027	80.012	19.993	103.740	19.968	0.066	0.002
23.500	113.041	80.012	19.993	103.741	19.965	0.301	0.010
24.000	113.020	80.013	19.995	103.742	19.966	0.200	0.004
24.500	113.022	80.013	19.993	103.741	19.967	0.118	-0.013
25.000	113.031	80.011	19.993	103.740	19.966	0.218	-0.004
25.499	113.038	80.013	19.993	103.740	19.965	0.307	0.014
25.999	113.037	80.012	19.992	103.740	19.963	0.455	0.011
26.499	113.101	80.015	19.992	103.737	19.962	0.493	0.034
26.999	113.025	80.013	19.992	103.736	19.965	0.329	0.025
27.499	113.035	80.013	19.992	103.733	19.961	0.571	-0.039
27.999	113.000	80.012	19.992	103.732	19.965	0.302	-0.045
28.500	113.039	80.012	19.993	103.733	19.963	0.445	-0.011
29.000	113.039	80.012	19.993	103.735	19.963	0.417	0.021
29.500	113.027	80.012	19.993	103.736	19.963	0.459	0.014
30.000	113.043	80.012	19.992	103.739	19.963	0.417	-0.004
30.500	113.018	80.012	19.992	103.740	19.962	0.525	-0.003
31.000	113.032	80.012	19.992	103.740	19.960	0.683	-0.010
31.500	113.027	80.012	19.993	103.741	19.963	0.472	-0.001
32.001	113.045	80.011	19.992	103.743	19.963	0.456	0.011
32.500	113.066	80.013	19.993	103.744	19.963	0.466	0.026
32.999	113.057	80.012	19.993	103.745	19.961	0.598	0.025
33.500	113.020	80.012	19.993	103.744	19.959	0.763	-0.017
34.000	113.028	80.012	19.993	103.744	19.962	0.550	-0.037
34.501	113.108	80.014	19.992	103.747	19.961	0.580	0.029
35.001	113.063	80.013	19.993	103.751	19.960	0.682	0.061
35.501	113.063	80.013	19.992	103.754	19.957	0.901	-0.005
36.000	113.086	80.014	19.993	103.757	19.955	1.067	-0.011
36.500	113.073	80.013	19.992	103.764	19.955	1.039	0.017
37.001	113.079	80.014	19.993	103.767	19.955	1.009	0.002
37.501	113.098	80.013	19.994	103.771	19.955	1.051	0.009
38.001	113.116	80.015	19.994	103.779	19.956	0.971	0.031
38.501	113.082	80.014	19.993	103.789	19.953	1.195	0.011
39.000	113.098	80.013	19.994	103.794	19.953	1.173	-0.017
39.500	113.134	80.014	19.993	103.800	19.952	1.255	0.017
40.000	113.142	80.014	19.993	103.807	19.955	1.040	0.048
40.499	113.147	80.016	19.993	103.815	19.950	1.411	0.029
40.999	113.207	80.014	19.994	103.822	19.951	1.355	0.039
41.500	113.177	80.014	19.993	103.828	19.949	1.445	0.047
42.000	113.231	80.013	19.994	103.837	19.951	1.319	0.027
42.500	113.263	80.014	19.993	103.844	19.950	1.427	0.055
43.000	113.216	80.014	19.993	103.848	19.946	1.731	0.036
43.500	113.278	80.013	19.993	103.850	19.945	1.747	0.000
44.000	113.280	80.014	19.994	103.860	19.943	1.897	0.040
44.499	113.322	80.013	19.993	103.867	19.943	1.913	0.054
44.999	113.359	80.014	19.993	103.873	19.940	2.177	0.061
45.499	113.380	80.013	19.993	103.881	19.938	2.289	0.068
45.999	113.413	80.014	19.993	103.887	19.941	2.099	0.056
46.500	113.475	80.013	19.993	103.885	19.939	2.235	0.075
47.000	113.528	80.013	19.993	103.881	19.938	2.313	0.105
47.501	113.588	80.013	19.993	103.876	19.934	2.575	0.114
48.001	113.603	80.012	19.993	103.872	19.938	2.307	0.094
48.500	113.665	80.012	19.993	103.873	19.936	2.437	0.076
49.000	113.706	80.012	19.993	103.876	19.937	2.351	0.090
49.500	113.716	80.012	19.993	103.882	19.937	2.347	0.077
49.999	113.760	80.012	19.993	103.895	19.935	2.543	0.052
50.500	113.838	80.011	19.993	103.902	19.932	2.711	0.088
51.001	113.884	80.012	19.994	103.902	19.934	2.553	0.123
51.500	113.974	80.010	19.993	103.905	19.932	2.743	0.130
52.000	114.008	80.012	19.993	103.905	19.930	2.862	0.130
52.501	114.077	80.011	19.993	103.899	19.932	2.710	0.114
53.001	114.127	80.011	19.993	103.896	19.931	2.810	0.112
53.500	114.217	80.011	19.994	103.894	19.933	2.650	0.130
53.999	114.270	80.011	19.993	103.893	19.930	2.898	0.141
54.500	114.337	80.011	19.993	103.890	19.932	2.770	0.132
55.000	114.388	80.010	19.993	103.890	19.931	2.818	0.119
55.500	114.480	80.010	19.994	103.891	19.933	2.678	0.131
56.000	114.555	80.011	19.994	103.892	19.931	2.840	0.155
56.500	114.617	80.012	19.994	103.893	19.932	2.718	0.152
57.000	114.686	80.012	19.993	103.896	19.931	2.824	0.134
57.499	114.754	80.011	19.994	103.895	19.932	2.748	0.134
57.999	114.820	80.012	19.993	103.896	19.932	2.764	0.135
58.500	114.897	80.012	19.993	103.896	19.930	2.866	0.138
59.000	114.953	80.012	19.994	103.896	19.931	2.796	0.138
59.500	115.051	80.013	19.993	103.899	19.927	3.126	0.144
60.000	115.094	80.011	19.994	103.901	19.927	3.085	0.148
60.499	115.183	80.012	19.994	103.902	19.927	3.109	0.136
61.000	115.306	80.012	19.994	103.908	19.926	3.175	0.172
61.501	115.389	80.013	19.994	103.916	19.925	3.277	0.209
62.000	115.432	80.012	19.995	103.920	19.923	3.403	0.166
62.499	115.554	80.011	19.994	103.925	19.924	3.335	0.146
63.000	115.625	80.011	19.994	103.932	19.923	3.375	0.179
63.500	115.716	80.011	19.995	103.933	19.926	3.181	0.177
64.000	115.819	80.012	19.994	103.934	19.923	3.395	0.178
64.500	115.900	80.011	19.995	103.935	19.925	3.225	0.189
65.000	115.986	80.013	19.995	103.935	19.924	3.315	0.176
65.501	116.067	80.011	19.995	103.937	19.923	3.371	0.167
66.000	116.180	80.011	19.994	103.942	19.926	3.191	0.180
66.499	116.297	80.012	19.994	103.946	19.925	3.245	0.212
66.999	116.412	80.010	19.994	103.947	19.921	3.521	0.231
67.499	116.502	80.012	19.995	103.948	19.923	3.403	0.219
67.999	116.609	80.012	19.994	103.947	19.923	3.419	0.201
68.499	116.744	80.011	19.994	103.942	19.922	3.503	0.219
68.999	116.828	80.012	19.994	103.939	19.920	3.593	0.230
69.500	116.953	80.011	19.995	103.944	19.920	3.617	0.214
70.001	117.071	80.010	19.995	103.950	19.923	3.417	0.226
70.501	117.211	80.010	19.994	103.957	19.920	3.611	0.250
71.000	117.323	80.011	19.994	103.965	19.920	3.595	0.255
71.499	117.415	80.010	19.994	103.970	19.918	3.794	0.228
71.999	117.573	80.010	19.994	103.971	19.920	3.592	0.228
72.500	117.688	80.011	19.994	103.973	19.918	3.762	0.262
73.000	117.810	80.011	19.994	103.973	19.919	3.672	0.255
73.499	117.949	80.011	19.994	103.973	19.921	3.587	0.249
73.999	118.071	80.011	19.994	103.973	19.919	3.685	0.261
74.499	118.198	80.012	19.994	103.973	19.918	3.759	0.255
74.999	118.328	80.010	19.994	103.973	19.918	3.765	0.253
75.499	118.444	80.011	19.993	103.973	19.918	3.762	0.251
75.999	118.595	80.011	19.995	103.973	19.918	3.794	0.256
76.499	118.722	80.011	19.993	103.974	19.920	3.642	0.272
76.999	118.881	80.010	19.994	103.975	19.921	3.544	0.282
77.499	119.015	80.011	19.994	103.975	19.919	3.696	0.289
77.999	119.127	80.010	19.994	103.973	19.921	3.540	0.269
78.499	119.296	80.011	19.994	103.973	19.921	3.544	0.264
78.999	119.422	80.012	19.994	103.973	19.920	3.650	0.288
79.499	119.599	80.012	19.993	103.973	19.919	3.678	0.299
79.999	119.725	80.011	19.994	103.975	19.918	3.804	0.303
80.499	119.879	80.011	19.994	103.977	19.921	3.584	0.292
80.999	120.040	80.010	19.992	103.979	19.916	3.918	0.298
81.500	120.180	80.012	19.993	103.983	19.918	3.800	0.308
82.001	120.303	80.011	19.993	103.989	19.915	4.005	0.282
82.501	120.468	80.012	19.993	103.995	19.916	3.941	0.276
83.001	120.633	80.011	19.994	103.999	19.915	3.999	0.309
83.499	120.735	80.012	19.994	103.999	19.913	4.143	0.298
84.000	120.947	80.010	19.994	103.995	19.915	4.015	0.291
84.501	121.069	80.012	19.993	103.990	19.916	3.929	0.324
85.000	121.249	80.011	19.994	103.985	19.912	4.187	0.318
85.499	121.425	80.011	19.993	103.981	19.914	4.062	0.329
86.000	121.561	80.010	19.993	103.984	19.915	4.016	0.334
86.499	121.742	80.012	19.994	103.990	19.916	3.926	0.314
86.999	121.892	80.011	19.993	103.997	19.914	4.088	0.324
87.500	122.083	80.012	19.993	104.003	19.913	4.124	0.336
88.001	122.282	80.011	19.993	104.008	19.916	3.936	0.366
88.500	122.433	80.012	19.993	104.012	19.914	4.095	0.370
88.999	122.630	80.012	19.993	104.011	19.911	4.279	0.349
89.499	122.762	80.012	19.993	104.010	19.914	4.074	0.338
90.000	122.974	80.012	19.993	104.009	19.907	4.582	0.337
90.501	123.159	80.012	19.994	104.010	19.910	4.392	0.371
91.001	123.321	80.013	19.993	104.012	19.914	4.074	0.372
91.501	123.496	80.011	19.992	104.011	19.910	4.398	0.342
92.001	123.713	80.011	19.993	104.012	19.912	4.210	0.365
92.499	123.865	80.012	19.993	104.013	19.911	4.318	0.380
92.999	124.065	80.012	19.993	104.014	19.910	4.385	0.360
93.500	124.277	80.012	19.992	104.014	19.910	4.345	0.383
94.001	124.421	80.011	19.992	104.018	19.909	4.453	0.384
94.501	124.634	80.011	19.992	104.017	19.909	4.469	0.356
95.001	124.791	80.012	19.993	104.017	19.911	4.297	0.363
95.500	124.965	80.012	19.992	104.016	19.911	4.323	0.350
95.999	125.186	80.011	19.992	104.014	19.912	4.205	0.363
96.499	125.361	80.012	19.992	104.010	19.912	4.187	0.396
96.999	125.568	80.013	19.992	104.004	19.910	4.341	0.389
97.500	125.746	80.013	19.993	104.003	19.909	4.457	0.384
98.000	125.935	80.012	19.993	104.001	19.909	4.409	0.376
98.499	126.144	80.013	19.992	104.002	19.911	4.279	0.382
98.999	126.354	80.013	19.993	104.006	19.911	4.327	0.408
99.500	126.565	80.012	19.992	104.011	19.908	4.487	0.420
100.000	126.796	80.012	19.992	104.008	19.910	4.391	0.432
100.501	126.935	80.013	19.992	104.005	19.906	4.649	0.406
101.001	127.169	80.013	19.993	104.002	19.908	4.505	0.371
101.501	127.352	80.013	19.992	103.996	19.908	4.529	0.395
102.000	127.572	80.012	19.992	103.992	19.907	4.575	0.410
102.500	127.757	80.013	19.993	103.997	19.906	4.647	0.404
103.001	127.957	80.013	19.992	104.002	19.912	4.227	0.395
103.501	128.164	80.014	19.994	104.003	19.905	4.719	0.397
104.001	128.400	80.015	19.993	104.008	19.911	4.324	0.425
104.500	128.597	80.014	19.992	104.011	19.909	4.446	0.438
104.999	128.794	80.013	19.993	104.011	19.908	4.518	0.413
105.501	129.041	80.012	19.993	104.011	19.912	4.192	0.419
106.000	129.230	80.013	19.992	104.011	19.911	4.316	0.440
106.500	129.468	80.011	19.992	104.012	19.909	4.469	0.431
107.000	129.682	80.013	19.993	104.010	19.910	4.397	0.440
107.500	129.850	80.012	19.993	104.009	19.908	4.549	0.417
108.000	130.096	80.012	19.994	104.009	19.911	4.307	0.398
108.500	130.315	80.012	19.993	104.007	19.908	4.503	0.439
109.000	130.542	80.012	19.993	104.007	19.906	4.635	0.456
109.499	130.764	80.013	19.992	104.008	19.908	4.487	0.448
110.001	130.992	80.012	19.992	104.008	19.910	4.342	0.449
110.501	131.202	80.012	19.992	104.009	19.908	4.493	0.444
111.000	131.440	80.013	19.993	104.011	19.910	4.397	0.444
111.499	131.668	80.013	19.993	104.010	19.910	4.369	0.457
112.001	131.859	80.013	19.993	104.012	19.913	4.154	0.442
112.501	132.101	80.013	19.992	104.011	19.906	4.671	0.426
113.000	132.310	80.013	19.993	104.009	19.910	4.378	0.442
113.499	132.543	80.011	19.993	104.008	19.911	4.290	0.447
113.999	132.787	80.012	19.992	104.010	19.908	4.536	0.460
114.500	132.947	80.013	19.992	104.010	19.912	4.208	0.441
115.001	133.216	80.013	19.993	104.006	19.910	4.368	0.416
115.501	133.414	80.013	19.992	104.005	19.910	4.368	0.448
116.000	133.673	80.013	19.992	104.003	19.909	4.420	0.462
116.499	133.900	80.013	19.992	104.002	19.909	4.419	0.471
116.999	134.126	80.014	19.992	104.001	19.912	4.210	0.469
117.499	134.352	80.013	19.992	104.005	19.910	4.375	0.453
117.999	134.592	80.014	19.992	104.009	19.910	4.345	0.460
118.499	134.800	80.013	19.992	104.011	19.908	4.521	0.457
118.999	135.071	80.014	19.992	104.009	19.908	4.544	0.463
119.500	135.315	80.014	19.992	104.007	19.908	4.524	0.497
120.001	135.515	80.013	19.993	104.006	19.909	4.428	0.480
120.499	135.762	80.013	19.992	104.006	19.907	4.626	0.445
120.999	136.044	80.013	19.992	104.006	19.910	4.354	0.488
121.499	136.222	80.014	19.992	104.008	19.910	4.364	0.495
121.999	136.467	80.014	19.992	104.011	19.908	4.522	0.441
122.499	136.682	80.013	19.992	104.009	19.907	4.558	0.441
122.999	136.971	80.015	19.992	104.008	19.907	4.562	0.481
123.499	137.198	80.014	19.993	104.007	19.907	4.558	0.510
123.999	137.458	80.014	19.992	104.003	19.911	4.311	0.502
124.499	137.694	80.015	19.992	104.001	19.910	4.345	0.492
125.000	137.889	80.014	19.993	104.001	19.909	4.417	0.464
125.501	138.146	80.013	19.992	104.001	19.912	4.236	0.442
126.000	138.377	80.015	19.992	104.000	19.912	4.252	0.470
126.499	138.634	80.015	19.993	104.003	19.908	4.510	0.488
126.999	138.901	80.015	19.992	104.004	19.908	4.542	0.506
127.499	139.150	80.013	19.993	104.006	19.908	4.498	0.520
128.000	139.390	80.014	19.992	104.008	19.908	4.516	0.503
128.500	139.613	80.014	19.993	104.009	19.906	4.628	0.476
129.000	139.867	80.014	19.992	104.010	19.908	4.552	0.470
129.500	140.124	80.014	19.993	104.007	19.906	4.700	0.494
130.000	140.323	80.015	19.993	104.003	19.907	4.582	0.483
130.500	140.576	80.012	19.993	104.001	19.911	4.328	0.454
131.000	140.869	80.013	19.993	103.999	19.910	4.396	0.499
131.500	141.082	80.014	19.993	104.000	19.911	4.290	0.526
131.999	141.331	80.013	19.993	104.002	19.909	4.466	0.484
132.499	141.608	80.013	19.993	104.005	19.910	4.342	0.495
132.999	141.833	80.013	19.994	104.003	19.910	4.392	0.514
133.499	142.084	80.012	19.993	104.000	19.908	4.490	0.489
133.999	142.310	80.013	19.993	103.993	19.911	4.280	0.477
134.499	142.605	80.012	19.993	103.987	19.909	4.440	0.499
135.000	142.812	80.013	19.994	103.982	19.909	4.468	0.511
135.501	143.097	80.012	19.993	103.980	19.912	4.202	0.497
136.000	143.366	80.012	19.993	103.981	19.907	4.574	0.523
136.499	143.616	80.011	19.994	103.989	19.910	4.376	0.537
137.000	143.857	80.011	19.993	103.990	19.908	4.514	0.505
137.500	144.124	80.012	19.994	103.991	19.910	4.378	0.500
137.999	144.383	80.011	19.994	103.993	19.910	4.342	0.517
138.499	144.630	80.011	19.993	103.994	19.911	4.266	0.516
138.999	144.875	80.012	19.993	103.990	19.912	4.197	0.498
139.500	145.151	80.012	19.994	103.988	19.909	4.457	0.506
140.001	145.394	80.011	19.993	103.989	19.910	4.335	0.520
140.501	145.652	80.011	19.994	103.989	19.911	4.313	0.510
141.000	145.925	80.011	19.991	103.989	19.913	4.137	0.516
141.500	146.165	80.011	19.995	103.987	19.911	4.295	0.522
142.000	146.397	80.010	19.995	103.988	19.910	4.379	0.493
142.501	146.636	80.012	19.994	103.994	19.912	4.211	0.472
143.000	146.886	80.012	19.994	103.996	19.910	4.379	0.480
143.499	147.105	80.011	19.994	103.994	19.911	4.285	0.479
143.999	147.371	80.011	19.993	103.994	19.910	4.395	0.477
144.499	147.648	80.012	19.994	103.993	19.908	4.507	0.514
144.999	147.961	80.010	19.994	103.989	19.908	4.509	0.567
145.499	148.189	80.012	19.993	103.989	19.910	4.379	0.565
145.999	148.441	80.011	19.993	103.986	19.910	4.389	0.511
146.500	148.695	80.010	19.993	103.986	19.909	4.437	0.493
147.000	148.950	80.012	19.993	103.987	19.913	4.149	0.508
147.499	149.222	80.011	19.993	103.986	19.911	4.257	0.518
148.000	149.495	80.011	19.993	103.983	19.913	4.129	0.536
148.500	149.764	80.012	19.994	103.983	19.914	4.097	0.544
149.000	150.007	80.011	19.993	103.985	19.911	4.285	0.527
149.501	150.299	80.013	19.992	103.983	19.914	4.079	0.523
150.001	150.526	80.011	19.992	103.981	19.912	4.193	0.527
150.500	150.782	80.011	19.993	103.980	19.911	4.303	0.501
150.999	151.034	80.011	19.993	103.980	19.913	4.113	0.496
151.499	151.260	80.011	19.994	103.978	19.912	4.255	0.493
151.999	151.547	80.013	19.993	103.978	19.914	4.049	0.495
152.499	151.792	80.012	19.993	103.978	19.912	4.205	0.522
152.999	152.081	80.012	19.992	103.976	19.909	4.421	0.533
153.499	152.338	80.011	19.994	103.976	19.911	4.273	0.540
154.000	152.582	80.011	19.993	103.977	19.912	4.217	0.523
154.500	152.831	80.012	19.993	103.976	19.910	4.343	0.497
154.999	153.102	80.011	19.994	103.977	19.913	4.121	0.507
155.500	153.380	80.012	19.994	103.978	19.912	4.217	0.535
155.999	153.583	80.012	19.993	103.978	19.911	4.321	0.515
156.499	153.864	80.012	19.993	103.978	19.911	4.317	0.483
156.999	154.125	80.012	19.993	103.978	19.909	4.427	0.514
157.499	154.371	80.011	19.992	103.978	19.910	4.347	0.525
158.000	154.580	80.010	19.993	103.981	19.912	4.183	0.480
158.500	154.869	80.012	19.993	103.981	19.911	4.311	0.476
159.000	155.127	80.011	19.994	103.981	19.912	4.215	0.523
159.501	155.381	80.012	19.994	103.981	19.910	4.365	0.530
160.000	155.656	80.010	19.993	103.980	19.914	4.049	0.520
160.499	155.931	80.011	19.993	103.977	19.911	4.291	0.539
160.999	156.193	80.011	19.994	103.977	19.909	4.429	0.543
161.499	156.437	80.010	19.994	103.977	19.912	4.231	0.521
162.000	156.701	80.012	19.994	103.978	19.914	4.107	0.507
162.500	156.926	80.010	19.993	103.977	19.913	4.129	0.499
163.000	157.207	80.010	19.993	103.977	19.911	4.309	0.497
163.500	157.450	80.009	19.994	103.977	19.912	4.253	0.515
164.000	157.695	80.009	19.994	103.977	19.914	4.041	0.506
164.501	157.963	80.011	19.993	103.977	19.915	4.021	0.500
165.001	158.240	80.010	19.994	103.976	19.916	3.935	0.529
165.501	158.491	80.010	19.995	103.976	19.916	3.917	0.536
166.000	158.754	80.010	19.995	103.975	19.916	3.915	0.521
166.499	158.994	80.011	19.994	103.975	19.914	4.059	0.509
167.000	159.246	80.012	19.994	103.975	19.914	4.103	0.498
167.501	159.496	80.011	19.995	103.975	19.912	4.229	0.497
168.000	159.760	80.010	19.994	103.975	19.914	4.081	0.508
168.499	160.041	80.010	19.994	103.975	19.914	4.059	0.530
169.000	160.276	80.011	19.993	103.975	19.915	3.999	0.530
169.500	160.528	80.011	19.994	103.974	19.915	4.029	0.501
170.000	160.813	80.012	19.995	103.975	19.916	3.926	0.512
170.500	161.039	80.011	19.993	103.974	19.916	3.910	0.524
170.999	161.304	80.010	19.994	103.972	19.914	4.084	0.501
171.500	161.538	80.010	19.993	103.971	19.914	4.095	0.495
172.000	161.809	80.010	19.995	103.971	19.916	3.953	0.502
