Sample ID:	C:\MCC\MCC Cal\Test\Vinyl_Plan_Flooring_MCC_30K_min_211111_R1.txt
Sample Weight (mg):	4.7
Heating Rate (C/s):	0.5
Combustor Temp (C):	900
N2 Flow Rate (cc/min):	80
O2 Flow Rate (cc/min):	20
Calibration File:	C:\MCC\MCC Cal\Coeff1 JN10440_30_210304.txt.txt
T Correction Coefficients:	0	1.024463	0
Time Shift (s):	14
*
Time (s)	Temperature (C)	N2 flow rate (cc/min)	O2 flow rate (cc/min)	Flow Rate (cc/min)	Oxygen (%)	HRR (W/g)	Heating rate (C/s)
0.000	106.867	80.003	19.994	103.010	20.025	-0.119	-0.003
0.500	106.835	80.004	19.995	103.005	20.022	0.022	-0.008
1.000	106.836	80.003	19.995	102.999	20.023	0.000	-0.020
1.500	106.853	80.003	19.994	103.002	20.025	-0.149	-0.007
2.000	106.860	80.002	19.993	103.002	20.027	-0.298	0.021
2.500	106.823	80.002	19.994	103.002	20.024	-0.074	-0.003
3.000	106.845	80.002	19.994	103.003	20.023	0.015	-0.022
3.500	106.838	80.002	19.994	103.006	20.025	-0.164	0.000
4.000	106.840	80.002	19.994	103.003	20.026	-0.199	0.005
4.500	106.839	80.002	19.994	103.003	20.023	0.002	-0.002
5.000	106.865	80.001	19.995	103.005	20.022	0.030	0.013
5.500	106.840	80.001	19.994	103.008	20.024	-0.071	0.013
6.000	106.846	80.000	19.993	103.009	20.023	-0.028	-0.009
6.500	106.854	80.001	19.994	103.012	20.023	0.000	-0.003
7.000	106.844	80.001	19.994	103.015	20.025	-0.147	0.006
7.500	106.836	80.001	19.994	103.015	20.024	-0.084	-0.010
8.000	106.838	80.002	19.995	103.012	20.023	-0.043	-0.012
8.500	106.821	80.001	19.995	103.011	20.027	-0.289	-0.011
9.000	106.809	80.001	19.994	103.008	20.023	-0.026	-0.022
9.500	106.841	80.001	19.994	103.005	20.025	-0.119	-0.005
10.000	106.834	80.002	19.994	103.003	20.023	-0.007	0.023
10.500	106.829	80.001	19.994	103.000	20.023	0.006	0.007
11.000	106.869	80.001	19.997	102.997	20.026	-0.197	0.011
11.501	106.822	80.001	19.995	102.996	20.027	-0.285	0.014
12.001	106.835	80.001	19.995	102.997	20.024	-0.073	-0.020
12.500	106.781	80.000	19.996	102.997	20.024	-0.115	-0.037
13.000	106.810	80.001	19.996	102.999	20.023	0.013	-0.033
13.500	106.816	80.000	19.995	103.000	20.026	-0.188	0.005
14.000	106.815	80.001	19.995	103.002	20.024	-0.084	0.020
14.500	106.797	80.000	19.995	103.006	20.023	-0.019	-0.007
15.000	106.802	80.000	19.997	103.013	20.025	-0.142	-0.016
15.501	106.842	80.002	19.996	103.019	20.022	0.050	0.016
16.001	106.812	80.001	19.996	103.025	20.025	-0.166	0.027
16.500	106.788	80.002	19.996	103.030	20.024	-0.112	-0.022
17.000	106.811	80.001	19.996	103.031	20.024	-0.067	-0.028
17.500	106.795	80.002	19.996	103.032	20.022	0.041	0.003
18.001	106.840	80.002	19.996	103.033	20.022	0.041	0.018
18.501	106.782	80.002	19.996	103.035	20.022	0.054	0.008
19.000	106.830	80.003	19.996	103.043	20.019	0.266	-0.012
19.500	106.842	80.001	19.995	103.050	20.017	0.373	0.025
20.000	106.848	80.001	19.996	103.057	20.018	0.300	0.039
20.500	106.842	80.001	19.995	103.062	20.020	0.192	0.009
21.000	106.860	80.001	19.996	103.062	20.019	0.250	0.006
21.500	106.857	80.001	19.995	103.057	20.021	0.123	0.014
22.000	106.843	80.001	19.996	103.051	20.016	0.468	-0.001
22.500	106.863	80.002	19.995	103.050	20.017	0.414	-0.005
23.000	106.870	80.001	19.995	103.051	20.015	0.505	0.016
23.500	106.876	80.001	19.995	103.057	20.013	0.676	0.020
24.000	106.870	80.002	19.995	103.064	20.015	0.529	0.007
24.500	106.921	80.001	19.995	103.079	20.013	0.673	0.022
25.000	106.911	80.001	19.996	103.088	20.012	0.734	0.043
25.500	106.943	80.002	19.995	103.096	20.015	0.535	0.032
26.000	106.922	80.001	19.996	103.103	20.012	0.762	0.017
26.500	106.933	80.003	19.994	103.109	20.014	0.620	0.001
27.000	106.938	80.002	19.995	103.109	20.011	0.840	0.003
27.500	107.021	80.002	19.995	103.109	20.010	0.896	0.052
28.000	107.051	80.002	19.995	103.111	20.005	1.228	0.100
28.500	107.037	80.003	19.995	103.115	20.009	0.961	0.065
29.000	107.044	80.003	19.994	103.120	20.008	1.028	0.005
29.500	107.106	80.001	19.994	103.124	20.008	0.999	0.031
30.000	107.107	80.001	19.995	103.131	20.007	1.101	0.066
30.501	107.153	80.000	19.996	103.137	20.005	1.194	0.055
31.001	107.148	80.001	19.995	103.142	20.007	1.114	0.045
31.501	107.202	80.002	19.995	103.140	20.005	1.187	0.045
32.001	107.251	80.001	19.996	103.141	20.005	1.243	0.075
32.500	107.241	80.002	19.995	103.141	20.006	1.129	0.071
33.000	107.253	80.001	19.995	103.141	20.005	1.232	0.021
33.500	107.307	80.001	19.995	103.142	20.006	1.178	0.034
34.000	107.360	80.001	19.996	103.144	20.007	1.113	0.086
34.500	107.412	80.001	19.995	103.149	20.003	1.346	0.106
35.001	107.409	80.001	19.995	103.153	20.005	1.187	0.077
35.501	107.477	80.002	19.995	103.155	20.001	1.521	0.057
36.000	107.541	80.002	19.996	103.155	20.003	1.372	0.099
36.500	107.532	80.002	19.996	103.155	20.004	1.271	0.093
37.000	107.559	80.001	19.996	103.154	20.000	1.565	0.036
37.500	107.613	80.000	19.994	103.151	20.001	1.497	0.049
38.001	107.672	80.001	19.995	103.149	20.002	1.398	0.097
38.501	107.709	80.000	19.995	103.148	20.002	1.437	0.105
39.000	107.747	80.000	19.995	103.149	20.002	1.394	0.085
39.500	107.841	80.000	19.996	103.152	20.002	1.417	0.104
40.001	107.889	80.000	19.996	103.152	20.001	1.471	0.137
40.501	107.944	80.000	19.996	103.152	20.001	1.523	0.122
41.000	108.002	79.999	19.996	103.152	20.002	1.430	0.108
41.500	108.012	80.001	19.997	103.152	20.000	1.532	0.091
42.000	108.102	80.000	19.996	103.147	20.003	1.357	0.084
42.500	108.134	80.000	19.996	103.147	20.001	1.497	0.111
43.000	108.219	80.001	19.996	103.147	19.998	1.728	0.119
43.500	108.299	80.000	19.996	103.148	19.998	1.702	0.141
44.000	108.331	80.000	19.997	103.152	19.998	1.683	0.138
44.500	108.384	80.000	19.995	103.160	20.002	1.413	0.098
45.000	108.467	80.001	19.995	103.168	20.000	1.566	0.111
45.500	108.485	80.001	19.996	103.173	20.001	1.521	0.119
46.001	108.582	80.000	19.995	103.176	19.998	1.679	0.108
46.501	108.670	80.001	19.996	103.175	19.998	1.726	0.150
47.000	108.721	80.000	19.997	103.173	19.997	1.750	0.162
47.500	108.822	80.001	19.996	103.171	19.996	1.859	0.145
48.000	108.892	80.001	19.996	103.174	19.997	1.801	0.161
48.500	108.936	80.001	19.995	103.179	19.995	1.877	0.142
49.000	108.991	80.002	19.995	103.184	19.996	1.863	0.107
49.501	109.102	80.001	19.995	103.189	19.996	1.855	0.133
50.001	109.164	80.002	19.995	103.191	19.993	2.045	0.170
50.501	109.221	80.001	19.995	103.191	19.996	1.857	0.146
51.001	109.333	80.003	19.996	103.190	19.993	2.021	0.144
51.500	109.359	80.002	19.995	103.191	19.992	2.090	0.153
52.001	109.484	80.001	19.996	103.193	19.991	2.165	0.145
52.501	109.517	80.002	19.995	103.192	19.991	2.197	0.154
53.000	109.653	80.003	19.995	103.193	19.989	2.305	0.163
53.500	109.736	80.002	19.995	103.196	19.990	2.260	0.194
54.000	109.806	80.003	19.994	103.196	19.988	2.417	0.186
54.500	109.886	80.003	19.995	103.194	19.990	2.230	0.151
55.000	109.982	80.003	19.994	103.195	19.990	2.277	0.163
55.501	110.097	80.002	19.995	103.194	19.989	2.314	0.194
56.001	110.154	80.003	19.995	103.193	19.988	2.387	0.192
56.500	110.250	80.001	19.994	103.197	19.992	2.124	0.162
57.000	110.345	80.002	19.995	103.197	19.992	2.109	0.171
57.500	110.423	80.002	19.994	103.200	19.991	2.189	0.182
58.000	110.507	80.002	19.995	103.201	19.988	2.361	0.168
58.501	110.631	80.002	19.995	103.204	19.990	2.281	0.185
59.001	110.724	80.001	19.995	103.208	19.988	2.400	0.213
59.501	110.795	80.002	19.994	103.215	19.989	2.318	0.191
60.001	110.880	80.002	19.994	103.221	19.988	2.378	0.160
60.500	111.006	80.001	19.995	103.227	19.987	2.480	0.183
61.000	111.104	80.002	19.994	103.230	19.987	2.473	0.217
61.500	111.198	80.002	19.994	103.230	19.986	2.491	0.208
62.000	111.296	80.002	19.995	103.231	19.988	2.407	0.192
62.500	111.396	80.002	19.995	103.231	19.986	2.538	0.195
63.000	111.512	80.000	19.995	103.230	19.988	2.381	0.207
63.500	111.613	80.003	19.994	103.230	19.984	2.631	0.216
64.000	111.730	80.000	19.995	103.231	19.983	2.760	0.217
64.500	111.860	80.001	19.994	103.232	19.983	2.719	0.232
65.000	111.968	80.000	19.995	103.232	19.984	2.628	0.242
65.500	112.077	80.001	19.995	103.232	19.984	2.676	0.227
66.000	112.165	80.001	19.994	103.232	19.983	2.697	0.207
66.500	112.284	80.001	19.994	103.232	19.981	2.831	0.202
67.000	112.401	80.002	19.994	103.231	19.982	2.788	0.222
67.500	112.510	79.999	19.995	103.231	19.982	2.790	0.231
68.000	112.642	80.001	19.994	103.231	19.984	2.647	0.233
68.500	112.731	80.002	19.993	103.234	19.984	2.633	0.231
69.000	112.871	80.001	19.994	103.234	19.986	2.555	0.225
69.500	113.017	80.000	19.994	103.238	19.984	2.677	0.257
70.000	113.148	80.001	19.995	103.238	19.981	2.848	0.282
70.500	113.298	80.002	19.994	103.239	19.986	2.550	0.279
71.000	113.435	80.001	19.994	103.240	19.984	2.675	0.283
71.501	113.586	80.002	19.994	103.240	19.983	2.738	0.287
72.001	113.650	80.002	19.994	103.238	19.984	2.660	0.252
72.500	113.813	80.002	19.994	103.239	19.979	3.003	0.221
73.000	113.941	80.002	19.994	103.238	19.981	2.854	0.259
73.500	114.070	80.003	19.994	103.240	19.980	2.934	0.274
74.001	114.221	80.003	19.994	103.244	19.984	2.678	0.269
74.501	114.338	80.003	19.995	103.248	19.982	2.824	0.274
75.001	114.439	80.003	19.995	103.249	19.979	3.005	0.243
75.501	114.599	80.003	19.995	103.251	19.980	2.910	0.240
76.000	114.784	80.005	19.994	103.250	19.983	2.723	0.303
76.500	114.930	80.004	19.994	103.247	19.982	2.802	0.337
77.000	115.027	80.005	19.994	103.247	19.980	2.940	0.287
77.500	115.173	80.004	19.994	103.250	19.982	2.809	0.244
78.000	115.313	80.004	19.994	103.250	19.983	2.761	0.265
78.500	115.465	80.004	19.994	103.249	19.983	2.738	0.289
79.001	115.611	80.003	19.995	103.254	19.980	2.951	0.295
79.501	115.756	80.004	19.994	103.256	19.981	2.893	0.295
80.001	115.890	80.003	19.994	103.257	19.981	2.893	0.285
80.500	116.042	80.003	19.995	103.260	19.979	2.988	0.282
81.000	116.172	80.003	19.995	103.264	19.979	3.025	0.284
81.500	116.344	80.003	19.995	103.263	19.979	2.969	0.292
82.000	116.471	80.005	19.994	103.262	19.979	3.016	0.300
82.500	116.637	80.004	19.994	103.262	19.981	2.899	0.296
83.000	116.820	80.003	19.994	103.262	19.978	3.072	0.322
83.501	116.960	80.002	19.994	103.263	19.979	2.997	0.336
84.001	117.121	80.004	19.995	103.263	19.984	2.656	0.312
84.500	117.317	80.004	19.995	103.263	19.983	2.701	0.329
85.000	117.434	80.002	19.994	103.262	19.979	3.003	0.336
85.501	117.630	80.003	19.995	103.262	19.980	2.945	0.313
86.001	117.770	80.001	19.995	103.261	19.980	2.942	0.324
86.500	117.898	80.002	19.994	103.261	19.978	3.081	0.302
87.000	118.081	80.001	19.995	103.262	19.981	2.845	0.289
87.500	118.234	80.002	19.995	103.263	19.981	2.899	0.323
88.000	118.430	80.001	19.994	103.264	19.979	2.977	0.342
88.500	118.569	80.001	19.995	103.265	19.983	2.693	0.342
89.000	118.716	80.002	19.994	103.266	19.982	2.820	0.311
89.500	118.923	80.003	19.994	103.266	19.982	2.789	0.320
90.000	119.066	80.002	19.994	103.266	19.984	2.636	0.351
90.500	119.282	80.001	19.994	103.265	19.984	2.679	0.354
91.000	119.389	80.002	19.995	103.266	19.981	2.835	0.341
91.500	119.586	80.001	19.995	103.265	19.979	2.986	0.314
92.001	119.741	80.001	19.995	103.265	19.982	2.766	0.328
92.501	119.906	80.000	19.994	103.265	19.982	2.796	0.337
93.000	120.100	80.002	19.994	103.266	19.982	2.790	0.340
93.500	120.303	80.001	19.994	103.265	19.981	2.863	0.378
94.000	120.434	80.002	19.995	103.266	19.981	2.846	0.365
94.500	120.631	80.002	19.994	103.264	19.983	2.746	0.331
95.001	120.784	80.002	19.994	103.263	19.978	3.046	0.339
95.501	120.966	80.001	19.994	103.262	19.980	2.921	0.342
96.001	121.137	80.001	19.995	103.263	19.980	2.914	0.344
96.500	121.324	80.000	19.995	103.263	19.984	2.666	0.356
97.000	121.495	80.002	19.996	103.266	19.977	3.109	0.358
97.500	121.681	80.001	19.994	103.266	19.978	3.052	0.357
98.000	121.885	80.001	19.995	103.267	19.980	2.938	0.374
98.500	122.082	80.000	19.996	103.265	19.978	3.055	0.396
99.000	122.262	80.001	19.995	103.265	19.981	2.856	0.389
99.501	122.404	80.002	19.995	103.265	19.978	3.076	0.350
100.001	122.620	80.001	19.994	103.265	19.980	2.953	0.340
100.501	122.797	80.001	19.995	103.265	19.981	2.895	0.375
101.000	123.012	80.000	19.995	103.267	19.978	3.061	0.392
101.500	123.189	80.002	19.995	103.268	19.981	2.871	0.392
102.000	123.371	80.000	19.995	103.267	19.982	2.787	0.376
102.500	123.578	80.002	19.995	103.266	19.980	2.923	0.375
103.001	123.756	80.000	19.995	103.266	19.980	2.955	0.387
103.501	123.943	80.002	19.994	103.266	19.980	2.929	0.375
104.001	124.141	80.001	19.993	103.266	19.979	3.026	0.375
104.500	124.305	80.002	19.995	103.266	19.979	2.990	0.373
105.000	124.531	80.001	19.995	103.267	19.978	3.052	0.375
105.500	124.729	80.001	19.995	103.267	19.979	2.987	0.407
106.000	124.889	80.001	19.996	103.267	19.981	2.895	0.391
106.500	125.101	80.001	19.995	103.267	19.976	3.186	0.365
107.000	125.262	79.999	19.994	103.267	19.982	2.811	0.373
107.500	125.460	80.001	19.995	103.267	19.980	2.947	0.366
108.001	125.664	80.001	19.995	103.267	19.977	3.151	0.380
108.501	125.853	80.000	19.994	103.268	19.980	2.951	0.398
109.001	126.064	80.000	19.995	103.268	19.981	2.892	0.397
109.501	126.265	80.000	19.994	103.269	19.983	2.699	0.406
110.001	126.436	80.000	19.996	103.270	19.980	2.927	0.392
110.501	126.661	80.001	19.994	103.270	19.982	2.821	0.384
111.000	126.818	80.000	19.995	103.271	19.978	3.050	0.389
111.500	127.030	80.001	19.995	103.271	19.979	2.972	0.375
112.000	127.231	79.999	19.994	103.271	19.980	2.944	0.391
112.500	127.447	80.000	19.994	103.270	19.979	2.979	0.415
113.001	127.624	80.001	19.996	103.270	19.979	3.011	0.405
113.501	127.823	79.999	19.995	103.270	19.982	2.830	0.384
114.001	128.038	80.000	19.996	103.271	19.981	2.841	0.395
114.500	128.271	79.999	19.995	103.273	19.982	2.769	0.431
115.000	128.478	80.000	19.995	103.280	19.980	2.957	0.444
115.500	128.680	80.000	19.995	103.282	19.981	2.862	0.424
116.001	128.858	80.001	19.995	103.281	19.981	2.873	0.395
116.501	129.071	80.000	19.995	103.281	19.977	3.106	0.386
117.000	129.243	79.999	19.996	103.279	19.981	2.895	0.388
117.500	129.489	80.001	19.995	103.273	19.979	2.994	0.402
118.000	129.665	80.001	19.995	103.275	19.980	2.953	0.421
118.500	129.891	80.000	19.995	103.278	19.981	2.884	0.412
119.000	130.078	80.000	19.995	103.278	19.980	2.960	0.407
119.500	130.275	80.000	19.995	103.279	19.977	3.132	0.398
120.000	130.522	80.001	19.995	103.280	19.979	3.026	0.414
120.501	130.674	80.001	19.995	103.278	19.979	2.977	0.422
121.001	130.905	80.000	19.996	103.276	19.979	2.996	0.391
121.500	131.156	80.000	19.993	103.278	19.979	2.996	0.433
122.000	131.339	80.000	19.994	103.278	19.980	2.957	0.459
122.500	131.564	80.000	19.996	103.279	19.983	2.727	0.421
123.000	131.782	80.000	19.994	103.280	19.979	2.998	0.425
123.500	131.984	80.000	19.994	103.287	19.981	2.841	0.431
124.000	132.219	80.000	19.995	103.289	19.982	2.794	0.429
124.500	132.426	80.000	19.995	103.293	19.981	2.858	0.440
125.000	132.636	80.002	19.994	103.291	19.981	2.884	0.430
125.500	132.809	80.001	19.995	103.293	19.979	3.028	0.400
126.001	133.056	80.001	19.996	103.290	19.978	3.097	0.401
126.501	133.255	80.001	19.996	103.287	19.975	3.251	0.432
127.000	133.508	80.001	19.995	103.284	19.979	2.999	0.449
127.500	133.730	80.001	19.996	103.284	19.978	3.104	0.464
128.000	133.935	80.001	19.994	103.280	19.976	3.210	0.451
128.500	134.148	80.001	19.994	103.278	19.975	3.249	0.423
129.000	134.371	80.001	19.995	103.276	19.978	3.089	0.427
129.500	134.588	80.002	19.995	103.274	19.976	3.207	0.438
130.000	134.778	80.002	19.994	103.274	19.976	3.199	0.424
130.500	135.009	80.001	19.996	103.274	19.976	3.227	0.414
131.000	135.255	80.002	19.995	103.273	19.974	3.326	0.448
131.500	135.472	80.001	19.995	103.273	19.979	2.999	0.470
132.000	135.698	80.001	19.995	103.272	19.975	3.242	0.453
132.500	135.890	80.002	19.995	103.271	19.975	3.268	0.431
133.000	136.104	80.001	19.994	103.270	19.974	3.357	0.412
133.500	136.368	80.002	19.995	103.270	19.973	3.387	0.442
134.000	136.579	80.000	19.995	103.270	19.974	3.337	0.476
134.500	136.794	80.000	19.995	103.271	19.975	3.247	0.450
135.000	137.021	80.000	19.995	103.274	19.974	3.346	0.434
135.500	137.227	80.002	19.994	103.278	19.975	3.307	0.438
136.000	137.439	80.001	19.994	103.278	19.972	3.473	0.426
136.500	137.725	80.001	19.994	103.278	19.973	3.395	0.458
137.000	137.944	80.001	19.995	103.278	19.974	3.348	0.501
137.500	138.169	80.002	19.996	103.274	19.979	2.975	0.474
138.000	138.371	80.000	19.996	103.270	19.975	3.268	0.436
138.500	138.615	80.002	19.995	103.270	19.975	3.277	0.437
139.000	138.820	80.003	19.994	103.269	19.975	3.244	0.447
139.500	139.017	80.001	19.995	103.270	19.973	3.387	0.426
140.000	139.255	80.001	19.996	103.272	19.973	3.387	0.419
140.501	139.458	80.001	19.996	103.274	19.978	3.096	0.438
141.001	139.709	80.001	19.996	103.273	19.975	3.266	0.447
141.500	139.926	80.000	19.996	103.274	19.971	3.578	0.461
142.000	140.185	80.000	19.996	103.272	19.974	3.354	0.472
142.500	140.369	80.001	19.997	103.269	19.974	3.315	0.460
143.000	140.609	80.000	19.997	103.267	19.975	3.303	0.434
143.500	140.850	80.001	19.996	103.267	19.973	3.447	0.452
144.000	141.064	80.000	19.995	103.266	19.972	3.505	0.468
144.500	141.293	80.001	19.996	103.266	19.969	3.684	0.449
145.000	141.527	80.001	19.995	103.266	19.972	3.486	0.453
145.500	141.778	80.002	19.996	103.266	19.971	3.540	0.474
146.000	142.018	80.001	19.996	103.266	19.974	3.369	0.488
146.500	142.217	80.000	19.996	103.266	19.969	3.663	0.465
147.000	142.444	80.002	19.995	103.265	19.969	3.667	0.433
147.500	142.668	80.002	19.995	103.265	19.967	3.811	0.438
148.000	142.911	80.002	19.996	103.265	19.966	3.882	0.459
148.500	143.171	80.003	19.996	103.265	19.968	3.764	0.485
149.000	143.394	80.002	19.995	103.265	19.971	3.565	0.493
149.500	143.636	80.001	19.995	103.265	19.969	3.676	0.474
150.000	143.859	80.000	19.993	103.265	19.972	3.501	0.465
150.500	144.126	80.001	19.994	103.265	19.970	3.600	0.478
151.000	144.360	80.002	19.995	103.267	19.970	3.593	0.495
151.500	144.603	80.002	19.995	103.268	19.972	3.473	0.489
152.000	144.833	80.003	19.995	103.268	19.973	3.445	0.475
152.500	145.060	80.002	19.996	103.269	19.970	3.587	0.465
153.000	145.330	80.002	19.995	103.269	19.972	3.482	0.477
153.500	145.554	80.002	19.994	103.267	19.972	3.494	0.495
154.000	145.763	80.003	19.995	103.267	19.971	3.535	0.463
154.500	146.052	80.003	19.995	103.267	19.972	3.456	0.466
155.000	146.241	80.003	19.995	103.267	19.971	3.555	0.488
155.500	146.493	80.003	19.994	103.267	19.970	3.600	0.459
156.000	146.728	80.003	19.995	103.267	19.969	3.719	0.464
156.500	146.947	80.001	19.995	103.266	19.970	3.626	0.471
157.000	147.182	80.003	19.995	103.266	19.971	3.548	0.454
157.500	147.416	80.004	19.994	103.266	19.967	3.813	0.461
158.000	147.664	80.004	19.996	103.266	19.971	3.563	0.475
158.500	147.868	80.004	19.993	103.266	19.968	3.730	0.467
159.000	148.149	80.004	19.993	103.266	19.968	3.768	0.469
159.500	148.352	80.002	19.994	103.266	19.970	3.647	0.485
160.000	148.588	80.004	19.995	103.266	19.971	3.544	0.462
160.500	148.827	80.003	19.995	103.266	19.970	3.634	0.457
161.000	149.084	80.003	19.994	103.265	19.967	3.796	0.485
161.500	149.286	80.003	19.995	103.268	19.970	3.609	0.477
162.000	149.555	80.004	19.995	103.268	19.969	3.686	0.466
162.500	149.755	80.003	19.994	103.268	19.969	3.693	0.470
163.000	150.042	80.004	19.994	103.268	19.970	3.609	0.477
163.500	150.280	80.003	19.993	103.268	19.967	3.792	0.506
164.000	150.512	80.003	19.993	103.266	19.968	3.751	0.498
164.500	150.729	80.002	19.994	103.265	19.971	3.539	0.460
165.000	150.984	80.003	19.994	103.265	19.969	3.656	0.460
165.500	151.204	80.002	19.994	103.265	19.967	3.835	0.473
166.000	151.454	80.002	19.995	103.265	19.966	3.904	0.472
166.500	151.690	80.002	19.994	103.265	19.965	3.960	0.478
167.000	151.947	80.001	19.994	103.265	19.967	3.857	0.489
167.500	152.243	80.000	19.994	103.264	19.966	3.885	0.523
168.000	152.432	80.000	19.995	103.265	19.965	3.938	0.519
168.500	152.689	80.000	19.994	103.265	19.962	4.161	0.466
169.000	152.926	80.000	19.994	103.265	19.966	3.904	0.470
169.500	153.127	80.000	19.994	103.265	19.966	3.921	0.466
170.000	153.354	80.000	19.994	103.266	19.964	4.037	0.433
170.500	153.622	80.000	19.994	103.266	19.963	4.093	0.462
171.000	153.852	80.000	19.994	103.267	19.964	4.016	0.497
171.500	154.084	80.001	19.995	103.267	19.964	4.001	0.480
172.000	154.335	80.002	19.994	103.267	19.964	4.038	0.473
