Sample ID:	C:\MCC\MCC Cal\Test\Vinyl_Covering_81A_MCC_30K_min_220304_R3.txt
Sample Weight (mg):	4.67
Heating Rate (C/s):	0.5
Combustor Temp (C):	900
N2 Flow Rate (cc/min):	80
O2 Flow Rate (cc/min):	20
Calibration File:	C:\MCC\MCC Cal\Coeff1 JN10440_30_210304.txt.txt
T Correction Coefficients:	0	1.024463	0
Time Shift (s):	14
*
Time (s)	Temperature (C)	N2 flow rate (cc/min)	O2 flow rate (cc/min)	Flow Rate (cc/min)	Oxygen (%)	HRR (W/g)	Heating rate (C/s)
0.000	113.730	80.012	19.995	103.735	20.030	0.231	0.005
0.500	113.723	80.012	19.993	103.736	20.031	0.189	-0.033
1.000	113.703	80.011	19.994	103.736	20.030	0.231	-0.036
1.500	113.737	80.012	19.993	103.736	20.030	0.236	-0.006
2.000	113.755	80.012	19.993	103.737	20.030	0.229	0.033
2.500	113.722	80.012	19.993	103.737	20.032	0.107	0.018
3.000	113.749	80.012	19.993	103.738	20.030	0.261	-0.010
3.500	113.767	80.011	19.995	103.736	20.033	0.032	0.020
4.000	113.730	80.013	19.994	103.730	20.031	0.191	0.013
4.500	113.768	80.013	19.993	103.724	20.030	0.255	-0.009
5.000	113.735	80.012	19.993	103.724	20.032	0.098	0.003
5.500	113.715	80.013	19.992	103.724	20.030	0.253	-0.024
6.000	113.721	80.013	19.993	103.726	20.032	0.090	-0.033
6.500	113.743	80.013	19.992	103.733	20.031	0.150	0.007
7.000	113.775	80.012	19.993	103.739	20.029	0.308	0.041
7.500	113.745	80.013	19.992	103.740	20.028	0.355	0.028
8.000	113.769	80.014	19.992	103.741	20.028	0.383	-0.002
8.500	113.746	80.014	19.993	103.743	20.024	0.615	-0.003
9.000	113.767	80.013	19.992	103.745	20.025	0.606	-0.000
9.500	113.746	80.014	19.991	103.751	20.024	0.623	-0.001
10.000	113.740	80.014	19.992	103.757	20.024	0.627	-0.014
10.500	113.771	80.014	19.993	103.765	20.025	0.598	-0.001
11.000	113.751	80.015	19.993	103.777	20.021	0.887	0.018
11.501	113.776	80.013	19.993	103.791	20.021	0.844	0.008
12.001	113.785	80.014	19.993	103.800	20.018	1.073	0.019
12.500	113.766	80.014	19.993	103.808	20.013	1.396	0.012
13.000	113.780	80.013	19.991	103.814	20.018	1.086	-0.008
13.500	113.783	80.014	19.993	103.817	20.014	1.347	0.006
14.001	113.797	80.014	19.992	103.823	20.019	1.015	0.017
14.501	113.793	80.014	19.994	103.832	20.013	1.421	0.014
15.000	113.820	80.013	19.993	103.841	20.014	1.377	0.016
15.501	113.853	80.013	19.994	103.850	20.013	1.392	0.041
16.001	113.870	80.013	19.995	103.860	20.011	1.535	0.055
16.500	113.908	80.013	19.992	103.864	20.012	1.492	0.053
17.000	113.923	80.013	19.994	103.869	20.012	1.481	0.054
17.500	113.946	80.012	19.994	103.867	20.012	1.456	0.045
18.000	113.983	80.013	19.993	103.867	20.012	1.503	0.049
18.500	114.022	80.012	19.993	103.864	20.007	1.817	0.068
19.000	114.080	80.011	19.993	103.864	20.008	1.762	0.087
19.500	114.126	80.011	19.994	103.862	20.007	1.832	0.101
20.000	114.137	80.011	19.993	103.867	20.009	1.712	0.081
20.500	114.175	80.011	19.994	103.868	20.007	1.813	0.053
21.000	114.186	80.011	19.991	103.868	20.008	1.748	0.048
21.501	114.204	80.011	19.992	103.864	20.007	1.858	0.039
22.001	114.242	80.010	19.991	103.861	20.008	1.761	0.042
22.501	114.307	80.011	19.992	103.857	20.003	2.080	0.079
23.000	114.328	80.010	19.993	103.859	20.004	2.058	0.095
23.500	114.363	80.010	19.992	103.867	20.001	2.232	0.071
24.000	114.447	80.012	19.992	103.877	20.006	1.930	0.088
24.500	114.486	80.011	19.994	103.885	20.004	2.063	0.121
25.000	114.523	80.010	19.994	103.893	20.002	2.146	0.099
25.500	114.587	80.011	19.995	103.895	20.004	2.046	0.088
26.000	114.625	80.010	19.994	103.893	20.007	1.819	0.101
26.500	114.653	80.010	19.993	103.890	20.002	2.146	0.084
27.000	114.723	80.010	19.992	103.886	19.998	2.463	0.082
27.500	114.783	80.010	19.995	103.884	20.000	2.302	0.114
28.001	114.828	80.011	19.994	103.886	20.000	2.341	0.118
28.501	114.886	80.009	19.993	103.889	19.997	2.503	0.104
29.000	114.928	80.011	19.992	103.892	19.997	2.544	0.101
29.500	115.005	80.011	19.994	103.896	19.995	2.692	0.109
30.000	115.120	80.010	19.991	103.898	19.992	2.846	0.156
30.500	115.148	80.011	19.993	103.899	19.992	2.878	0.168
31.000	115.263	80.010	19.993	103.904	19.995	2.647	0.143
31.500	115.301	80.012	19.994	103.912	19.990	2.981	0.148
32.001	115.346	80.010	19.994	103.919	19.991	2.955	0.118
32.501	115.378	80.010	19.993	103.925	19.990	2.996	0.080
33.000	115.470	80.010	19.994	103.932	19.991	2.927	0.101
33.500	115.593	80.009	19.993	103.934	19.993	2.831	0.170
34.000	115.632	80.011	19.994	103.934	19.990	3.015	0.189
34.500	115.732	80.010	19.994	103.935	19.989	3.077	0.150
35.000	115.801	80.010	19.995	103.938	19.988	3.120	0.154
35.500	115.883	80.011	19.994	103.938	19.989	3.083	0.160
36.000	115.953	80.010	19.993	103.936	19.989	3.098	0.152
36.500	116.053	80.011	19.991	103.936	19.990	3.040	0.161
37.001	116.129	80.010	19.994	103.936	19.988	3.169	0.173
37.501	116.242	80.010	19.993	103.934	19.989	3.083	0.183
38.000	116.312	80.010	19.994	103.935	19.986	3.292	0.186
38.500	116.377	80.011	19.993	103.937	19.986	3.286	0.159
39.000	116.473	80.009	19.991	103.938	19.987	3.194	0.148
39.501	116.553	80.012	19.994	103.938	19.989	3.110	0.168
40.001	116.659	80.011	19.994	103.940	19.989	3.091	0.181
40.500	116.768	80.012	19.994	103.939	19.988	3.138	0.201
41.000	116.845	80.010	19.992	103.940	19.990	3.026	0.201
41.500	116.922	80.011	19.993	103.943	19.990	3.009	0.170
42.001	117.027	80.010	19.993	103.945	19.987	3.236	0.168
42.501	117.119	80.010	19.992	103.943	19.987	3.208	0.190
43.000	117.230	80.011	19.993	103.944	19.988	3.159	0.200
43.500	117.316	80.010	19.993	103.943	19.986	3.277	0.200
44.000	117.443	80.010	19.993	103.940	19.988	3.180	0.205
44.500	117.525	80.008	19.994	103.938	19.987	3.236	0.211
45.000	117.654	80.010	19.993	103.939	19.988	3.116	0.210
45.500	117.756	80.010	19.992	103.939	19.988	3.181	0.221
46.000	117.886	80.010	19.993	103.939	19.987	3.238	0.232
46.500	118.001	80.009	19.992	103.939	19.990	2.982	0.238
47.000	118.109	80.009	19.993	103.940	19.988	3.180	0.234
47.501	118.223	80.008	19.994	103.943	19.988	3.125	0.223
48.001	118.327	80.010	19.993	103.948	19.988	3.161	0.220
48.501	118.439	80.009	19.995	103.951	19.988	3.153	0.217
49.000	118.573	80.010	19.993	103.958	19.988	3.151	0.231
49.500	118.699	80.009	19.993	103.963	19.989	3.076	0.253
50.000	118.838	80.010	19.994	103.967	19.987	3.219	0.262
50.501	118.933	80.009	19.993	103.970	19.985	3.382	0.250
51.001	119.106	80.010	19.993	103.974	19.984	3.454	0.251
51.500	119.185	80.009	19.994	103.976	19.983	3.506	0.260
52.000	119.359	80.010	19.996	103.976	19.981	3.612	0.253
52.500	119.455	80.009	19.993	103.976	19.983	3.503	0.262
53.000	119.611	80.009	19.996	103.976	19.980	3.702	0.261
53.500	119.758	80.008	19.994	103.975	19.979	3.743	0.277
54.000	119.857	80.009	19.996	103.975	19.978	3.815	0.275
54.500	119.995	80.010	19.993	103.974	19.980	3.717	0.241
55.001	120.137	80.010	19.997	103.974	19.979	3.772	0.258
55.501	120.292	80.009	19.993	103.974	19.977	3.909	0.288
56.000	120.440	80.010	19.995	103.974	19.976	3.954	0.300
56.500	120.540	80.008	19.992	103.974	19.979	3.756	0.275
57.000	120.704	80.010	19.993	103.976	19.975	4.021	0.256
57.500	120.836	80.009	19.994	103.977	19.978	3.845	0.280
58.001	120.981	80.009	19.994	103.979	19.977	3.944	0.287
58.501	121.148	80.010	19.995	103.979	19.977	3.910	0.295
59.000	121.315	80.011	19.995	103.979	19.977	3.886	0.323
59.500	121.465	80.010	19.992	103.977	19.978	3.830	0.325
60.000	121.644	80.011	19.995	103.975	19.976	3.982	0.323
60.501	121.777	80.010	19.994	103.973	19.981	3.644	0.321
61.001	121.949	80.009	19.994	103.973	19.979	3.759	0.309
61.500	122.095	80.010	19.995	103.973	19.977	3.928	0.311
62.000	122.235	80.011	19.993	103.973	19.978	3.871	0.302
62.500	122.412	80.010	19.995	103.974	19.974	4.140	0.302
63.000	122.557	80.011	19.994	103.975	19.976	3.952	0.320
63.500	122.747	80.012	19.994	103.976	19.977	3.922	0.328
64.000	122.853	80.012	19.994	103.979	19.975	4.037	0.315
64.501	123.040	80.012	19.993	103.985	19.976	4.016	0.294
65.001	123.203	80.011	19.992	103.990	19.974	4.136	0.322
65.501	123.341	80.012	19.993	103.992	19.975	4.054	0.326
66.001	123.508	80.012	19.995	103.993	19.977	3.920	0.304
66.500	123.676	80.013	19.994	103.991	19.975	4.076	0.320
67.000	123.836	80.012	19.992	103.987	19.976	3.991	0.331
67.500	123.999	80.012	19.992	103.983	19.975	4.061	0.325
68.000	124.212	80.013	19.992	103.980	19.976	3.976	0.349
68.500	124.364	80.012	19.994	103.978	19.974	4.132	0.370
69.000	124.518	80.012	19.994	103.979	19.973	4.166	0.335
69.500	124.704	80.013	19.992	103.978	19.972	4.241	0.324
70.000	124.885	80.012	19.992	103.979	19.978	3.862	0.354
70.500	125.081	80.012	19.992	103.984	19.976	3.992	0.372
71.000	125.200	80.012	19.993	103.987	19.975	4.077	0.346
71.500	125.393	80.012	19.992	103.991	19.974	4.114	0.314
72.000	125.581	80.013	19.992	103.995	19.975	4.058	0.346
72.500	125.778	80.014	19.994	103.995	19.975	4.033	0.382
73.001	125.982	80.010	19.993	103.994	19.975	4.080	0.393
73.501	126.134	80.011	19.995	103.995	19.976	4.005	0.379
74.000	126.308	80.012	19.993	103.996	19.976	3.977	0.341
74.500	126.515	80.012	19.993	103.996	19.973	4.215	0.353
75.001	126.720	80.012	19.994	104.000	19.971	4.300	0.396
75.501	126.885	80.012	19.994	103.999	19.974	4.095	0.391
76.000	127.064	80.012	19.992	103.999	19.972	4.258	0.357
76.501	127.265	80.011	19.993	103.994	19.974	4.103	0.362
77.001	127.443	80.012	19.992	103.993	19.972	4.236	0.380
77.500	127.645	80.010	19.993	103.988	19.975	4.061	0.380
78.001	127.806	80.011	19.993	103.988	19.973	4.180	0.371
78.501	128.008	80.013	19.994	103.990	19.974	4.133	0.363
79.000	128.138	80.011	19.994	103.988	19.970	4.392	0.347
79.500	128.400	80.011	19.992	103.985	19.972	4.287	0.362
80.000	128.600	80.010	19.992	103.990	19.969	4.441	0.427
80.500	128.778	80.012	19.992	103.991	19.974	4.148	0.420
81.000	129.023	80.012	19.994	103.993	19.972	4.268	0.401
81.501	129.203	80.013	19.994	103.999	19.970	4.435	0.425
82.001	129.400	80.012	19.994	104.004	19.968	4.561	0.401
82.500	129.577	80.011	19.993	104.004	19.970	4.430	0.376
83.000	129.797	80.012	19.994	104.005	19.968	4.524	0.385
83.500	129.979	80.012	19.993	104.002	19.968	4.541	0.399
84.000	130.192	80.012	19.993	104.002	19.969	4.493	0.399
84.500	130.362	80.011	19.993	104.003	19.968	4.510	0.389
85.000	130.601	80.012	19.996	104.001	19.972	4.296	0.396
85.500	130.805	80.013	19.995	104.000	19.968	4.523	0.426
86.001	130.978	80.012	19.993	104.004	19.969	4.460	0.410
86.501	131.194	80.011	19.993	103.998	19.966	4.668	0.382
87.001	131.393	80.011	19.991	103.995	19.967	4.610	0.402
87.500	131.610	80.012	19.993	103.999	19.969	4.486	0.416
88.000	131.806	80.012	19.993	104.002	19.968	4.526	0.415
88.500	132.023	80.012	19.994	104.002	19.967	4.638	0.413
89.000	132.235	80.013	19.992	104.008	19.963	4.890	0.421
89.500	132.436	80.011	19.993	104.012	19.967	4.584	0.421
90.000	132.636	80.011	19.994	104.010	19.964	4.822	0.407
90.500	132.839	80.013	19.993	104.005	19.966	4.660	0.402
91.000	133.045	80.013	19.992	103.997	19.967	4.608	0.406
91.500	133.284	80.012	19.992	103.997	19.968	4.559	0.427
92.000	133.511	80.013	19.993	103.997	19.968	4.537	0.456
92.500	133.680	80.012	19.992	103.999	19.966	4.706	0.431
93.001	133.920	80.013	19.989	104.004	19.966	4.706	0.402
93.501	134.131	80.013	19.993	104.008	19.964	4.793	0.430
94.000	134.340	80.013	19.994	104.005	19.966	4.670	0.436
94.500	134.521	80.012	19.992	104.003	19.967	4.603	0.405
95.000	134.778	80.013	19.991	104.001	19.967	4.644	0.414
95.500	134.962	80.013	19.990	104.000	19.967	4.588	0.439
96.000	135.167	80.013	19.992	103.998	19.964	4.785	0.415
96.500	135.371	80.012	19.991	103.997	19.965	4.716	0.399
97.000	135.569	80.013	19.991	103.999	19.964	4.789	0.406
97.500	135.844	80.013	19.990	104.002	19.963	4.887	0.437
98.000	136.058	80.011	19.993	104.002	19.966	4.703	0.481
98.500	136.269	80.012	19.991	104.009	19.962	4.930	0.457
99.000	136.499	80.013	19.992	104.011	19.964	4.846	0.433
99.500	136.743	80.013	19.993	104.007	19.961	5.028	0.458
100.000	136.943	80.013	19.992	104.005	19.962	4.988	0.459
100.500	137.211	80.012	19.995	104.004	19.965	4.729	0.456
101.000	137.364	80.013	19.992	104.000	19.963	4.917	0.445
101.501	137.601	80.011	19.992	103.997	19.963	4.868	0.406
102.001	137.868	80.012	19.992	103.996	19.963	4.894	0.447
102.500	138.085	80.011	19.993	103.997	19.966	4.687	0.494
103.001	138.329	80.010	19.992	103.999	19.960	5.076	0.472
103.501	138.519	80.011	19.991	104.003	19.960	5.121	0.448
104.000	138.737	80.011	19.992	104.008	19.960	5.078	0.421
104.500	138.967	80.011	19.993	104.009	19.960	5.101	0.428
105.000	139.234	80.010	19.995	104.009	19.957	5.285	0.472
105.500	139.444	80.012	19.991	104.006	19.960	5.129	0.487
106.000	139.701	80.011	19.993	104.005	19.963	4.896	0.472
106.500	139.946	80.010	19.993	104.006	19.961	5.024	0.485
107.000	140.146	80.010	19.993	104.008	19.962	4.930	0.474
107.500	140.359	80.011	19.993	104.010	19.962	4.961	0.429
108.000	140.613	80.010	19.991	104.014	19.960	5.087	0.439
108.501	140.885	80.010	19.992	104.016	19.958	5.235	0.496
109.001	141.075	80.011	19.993	104.016	19.957	5.303	0.494
109.500	141.306	80.010	19.992	104.017	19.959	5.187	0.441
110.000	141.568	80.010	19.992	104.017	19.958	5.237	0.457
110.500	141.763	80.011	19.992	104.018	19.959	5.140	0.475
111.001	141.984	80.010	19.993	104.016	19.954	5.514	0.437
111.501	142.247	80.010	19.992	104.015	19.957	5.303	0.450
112.000	142.466	80.010	19.993	104.012	19.955	5.448	0.483
112.500	142.717	80.008	19.995	104.009	19.961	5.016	0.476
113.000	142.927	80.010	19.992	104.007	19.957	5.279	0.466
113.500	143.191	80.011	19.991	104.009	19.956	5.375	0.467
114.000	143.427	80.009	19.993	104.009	19.955	5.438	0.487
114.500	143.688	80.010	19.992	104.012	19.956	5.344	0.499
115.000	143.927	80.009	19.993	104.013	19.954	5.545	0.498
115.500	144.178	80.010	19.993	104.012	19.955	5.458	0.495
116.001	144.405	80.011	19.994	104.013	19.958	5.244	0.484
116.501	144.647	80.011	19.992	104.013	19.955	5.454	0.474
117.001	144.886	80.010	19.993	104.011	19.953	5.578	0.475
117.500	145.146	80.011	19.993	104.009	19.954	5.526	0.489
118.001	145.363	80.010	19.994	104.007	19.952	5.624	0.488
118.501	145.594	80.011	19.994	104.006	19.953	5.549	0.463
119.000	145.876	80.011	19.993	104.004	19.954	5.538	0.481
119.500	146.096	80.009	19.993	104.000	19.952	5.671	0.507
120.000	146.342	80.011	19.994	104.002	19.949	5.880	0.484
120.500	146.620	80.010	19.994	104.004	19.952	5.639	0.495
121.000	146.854	80.011	19.993	104.003	19.948	5.945	0.518
121.500	147.083	80.010	19.992	104.002	19.949	5.840	0.488
122.000	147.275	80.011	19.993	104.004	19.948	5.928	0.442
122.500	147.527	80.012	19.993	104.003	19.946	6.071	0.432
123.000	147.784	80.010	19.995	104.003	19.949	5.885	0.477
123.500	148.047	80.010	19.994	104.002	19.943	6.311	0.515
124.001	148.248	80.011	19.993	104.004	19.944	6.240	0.492
124.501	148.508	80.012	19.993	104.005	19.945	6.118	0.462
125.001	148.770	80.011	19.992	104.002	19.945	6.118	0.491
125.500	149.032	80.011	19.993	103.999	19.945	6.118	0.523
126.001	149.270	80.011	19.992	103.993	19.945	6.123	0.512
126.501	149.557	80.011	19.993	103.987	19.946	6.065	0.513
127.001	149.744	80.011	19.996	103.983	19.944	6.211	0.500
127.501	149.977	80.010	19.996	103.982	19.943	6.260	0.447
128.001	150.252	80.010	19.992	103.985	19.942	6.363	0.464
128.500	150.497	80.011	19.994	103.988	19.942	6.343	0.513
129.000	150.721	80.011	19.993	103.990	19.943	6.306	0.494
129.500	150.987	80.011	19.992	103.993	19.943	6.289	0.480
130.000	151.196	80.012	19.993	103.996	19.943	6.270	0.483
130.500	151.457	80.012	19.992	103.995	19.941	6.415	0.472
131.000	151.719	80.011	19.992	103.997	19.943	6.270	0.497
131.500	151.952	80.011	19.993	103.996	19.943	6.289	0.509
132.000	152.201	80.011	19.991	103.995	19.940	6.499	0.488
132.500	152.445	80.011	19.993	103.995	19.941	6.446	0.487
133.000	152.763	80.009	19.992	103.992	19.940	6.463	0.528
133.500	152.991	80.010	19.992	103.990	19.939	6.589	0.555
134.000	153.206	80.010	19.997	103.991	19.941	6.407	0.495
134.500	153.441	80.010	19.995	103.992	19.935	6.814	0.446
135.000	153.679	80.010	19.995	103.995	19.937	6.669	0.461
135.500	153.911	80.010	19.995	103.998	19.940	6.498	0.471
136.000	154.186	80.010	19.994	103.996	19.938	6.654	0.488
136.500	154.388	80.010	19.995	103.994	19.937	6.671	0.493
137.000	154.650	80.010	19.994	103.989	19.938	6.592	0.470
137.500	154.898	80.010	19.996	103.983	19.938	6.654	0.486
138.000	155.121	80.010	19.994	103.978	19.933	6.970	0.491
138.500	155.346	80.011	19.992	103.977	19.936	6.771	0.460
139.000	155.616	80.010	19.994	103.980	19.933	6.987	0.471
139.500	155.870	80.011	19.996	103.984	19.933	6.944	0.510
140.001	156.132	80.010	19.994	103.989	19.933	6.945	0.520
140.501	156.380	80.010	19.996	103.994	19.935	6.853	0.513
141.000	156.639	80.010	19.992	103.997	19.936	6.731	0.509
141.500	156.885	80.010	19.994	103.994	19.934	6.879	0.506
142.000	157.126	80.010	19.993	103.990	19.933	6.960	0.496
142.500	157.366	80.010	19.995	103.988	19.931	7.122	0.484
143.000	157.623	80.009	19.995	103.988	19.932	7.058	0.489
143.500	157.879	80.010	19.993	103.986	19.930	7.161	0.505
144.000	158.153	80.009	19.993	103.986	19.931	7.112	0.521
144.500	158.401	80.010	19.994	103.986	19.931	7.137	0.526
145.000	158.661	80.010	19.995	103.981	19.930	7.152	0.516
145.500	158.895	80.009	19.994	103.976	19.930	7.148	0.501
146.000	159.132	80.010	19.992	103.974	19.929	7.218	0.482
146.501	159.383	80.011	19.992	103.974	19.929	7.246	0.479
147.001	159.657	80.011	19.993	103.974	19.928	7.353	0.506
147.500	159.874	80.010	19.993	103.976	19.926	7.447	0.508
148.000	160.162	80.009	19.993	103.977	19.928	7.285	0.498
148.500	160.373	80.010	19.994	103.978	19.924	7.593	0.502
149.000	160.627	80.010	19.995	103.980	19.922	7.728	0.482
149.501	160.899	80.011	19.994	103.980	19.922	7.764	0.495
150.001	161.140	80.010	19.995	103.978	19.922	7.749	0.520
150.501	161.420	80.011	19.994	103.979	19.922	7.702	0.518
151.000	161.648	80.012	19.994	103.978	19.923	7.670	0.514
151.501	161.882	80.010	19.995	103.977	19.920	7.879	0.485
152.001	162.168	80.011	19.991	103.977	19.921	7.775	0.491
152.500	162.386	80.012	19.993	103.976	19.921	7.805	0.512
153.000	162.655	80.011	19.991	103.974	19.916	8.125	0.496
153.500	162.866	80.011	19.993	103.973	19.916	8.142	0.484
154.000	163.132	80.012	19.991	103.975	19.916	8.130	0.478
154.500	163.396	80.011	19.995	103.977	19.912	8.403	0.503
155.000	163.662	80.011	19.993	103.978	19.912	8.461	0.530
155.500	163.868	80.012	19.994	103.978	19.913	8.365	0.501
156.000	164.199	80.011	19.993	103.980	19.913	8.331	0.505
156.500	164.422	80.011	19.993	103.980	19.910	8.572	0.546
157.000	164.668	80.011	19.995	103.978	19.910	8.579	0.512
157.500	164.924	80.011	19.992	103.978	19.913	8.356	0.485
158.000	165.188	80.011	19.993	103.977	19.911	8.517	0.510
158.500	165.451	80.012	19.993	103.976	19.909	8.619	0.523
159.000	165.682	80.010	19.992	103.974	19.909	8.658	0.511
159.500	165.929	80.011	19.993	103.974	19.908	8.690	0.487
160.000	166.174	80.012	19.993	103.974	19.908	8.709	0.485
160.500	166.417	80.010	19.992	103.975	19.906	8.853	0.490
161.000	166.688	80.010	19.993	103.975	19.907	8.744	0.501
161.500	166.926	80.012	19.991	103.975	19.911	8.515	0.511
162.000	167.180	80.012	19.994	103.974	19.908	8.679	0.500
162.501	167.412	80.012	19.993	103.975	19.909	8.643	0.489
163.001	167.668	80.011	19.992	103.975	19.909	8.628	0.487
163.500	167.913	80.011	19.993	103.975	19.909	8.647	0.494
164.000	168.147	80.011	19.992	103.976	19.907	8.750	0.490
164.500	168.405	80.011	19.994	103.977	19.906	8.836	0.485
165.000	168.634	80.011	19.991	103.977	19.906	8.872	0.489
165.500	168.874	80.011	19.989	103.978	19.902	9.098	0.478
166.000	169.099	80.013	19.992	103.978	19.901	9.170	0.467
166.500	169.394	80.012	19.992	103.978	19.900	9.241	0.492
167.000	169.614	80.011	19.992	103.978	19.903	9.086	0.517
167.500	169.883	80.012	19.992	103.977	19.902	9.108	0.502
168.000	170.135	80.011	19.993	103.977	19.904	8.979	0.505
168.500	170.404	80.010	19.991	103.977	19.903	9.049	0.521
169.000	170.625	80.011	19.993	103.977	19.901	9.167	0.505
169.500	170.859	80.011	19.992	103.976	19.899	9.314	0.472
170.000	171.138	80.012	19.992	103.977	19.897	9.471	0.484
170.501	171.353	80.010	19.993	103.977	19.897	9.490	0.504
171.001	171.621	80.011	19.992	103.977	19.894	9.689	0.488
171.501	171.853	80.012	19.993	103.976	19.895	9.602	0.491
172.000	172.134	80.012	19.991	103.976	19.892	9.850	0.507
172.501	172.330	80.011	19.993	103.976	19.891	9.875	0.495
