Sample ID:	C:\MCC\MCC Cal\Test\Rayon_Bamboo_Pillowcase_MCC_30K_min_220112_R3.txt
Sample Weight (mg):	4.59
Heating Rate (C/s):	0.5
Combustor Temp (C):	900
N2 Flow Rate (cc/min):	80
O2 Flow Rate (cc/min):	20
Calibration File:	C:\MCC\MCC Cal\Coeff1 JN10440_30_210304.txt.txt
T Correction Coefficients:	0	1.024463	0
Time Shift (s):	14
*
Time (s)	Temperature (C)	N2 flow rate (cc/min)	O2 flow rate (cc/min)	Flow Rate (cc/min)	Oxygen (%)	HRR (W/g)	Heating rate (C/s)
0.000	110.967	80.011	19.995	104.094	19.961	0.403	0.006
0.500	110.937	80.011	19.995	104.066	19.961	0.428	-0.000
1.000	110.954	80.011	19.995	104.061	19.960	0.502	-0.010
1.500	110.974	80.011	19.996	104.057	19.961	0.440	0.012
2.000	110.958	80.010	19.996	104.053	19.960	0.449	0.021
2.500	110.956	80.011	19.995	104.053	19.962	0.354	-0.007
2.999	110.973	80.011	19.995	104.058	19.962	0.372	-0.002
3.500	110.990	80.010	19.995	104.063	19.962	0.356	0.025
4.000	110.963	80.012	19.994	104.064	19.960	0.451	0.012
4.500	110.988	80.010	19.995	104.064	19.960	0.467	-0.006
5.000	110.956	80.012	19.995	104.065	19.961	0.428	-0.005
5.500	110.934	80.011	19.995	104.062	19.960	0.467	-0.031
6.000	110.934	80.011	19.995	104.064	19.955	0.804	-0.038
6.500	110.917	80.011	19.995	104.065	19.955	0.807	-0.019
7.000	110.958	80.011	19.995	104.071	19.959	0.545	0.004
7.499	110.934	80.010	19.994	104.078	19.961	0.391	0.021
8.000	110.927	80.011	19.994	104.085	19.960	0.496	-0.007
8.500	110.936	80.010	19.995	104.086	19.959	0.568	-0.015
9.000	110.942	80.010	19.995	104.092	19.958	0.605	0.008
9.500	110.969	80.012	19.994	104.094	19.960	0.481	0.024
10.000	110.922	80.011	19.994	104.094	19.957	0.728	0.006
10.500	110.957	80.012	19.994	104.094	19.956	0.775	-0.016
11.000	110.942	80.011	19.993	104.094	19.957	0.670	0.004
11.500	110.958	80.011	19.993	104.090	19.955	0.825	0.011
12.000	110.971	80.012	19.993	104.088	19.960	0.469	0.015
12.500	110.969	80.011	19.994	104.087	19.957	0.728	0.020
13.000	110.957	80.012	19.994	104.085	19.961	0.421	-0.001
13.500	110.930	80.012	19.993	104.085	19.956	0.732	-0.027
14.000	110.952	80.012	19.994	104.090	19.957	0.670	-0.022
14.500	110.944	80.011	19.993	104.091	19.958	0.631	0.005
15.000	110.968	80.012	19.993	104.092	19.959	0.559	0.015
15.500	110.980	80.012	19.993	104.097	19.958	0.658	0.026
16.000	110.945	80.012	19.994	104.097	19.957	0.689	0.007
16.500	110.944	80.013	19.993	104.098	19.959	0.574	-0.029
17.000	110.981	80.012	19.994	104.099	19.958	0.647	-0.000
17.500	110.999	80.011	19.995	104.099	19.958	0.654	0.045
18.000	111.021	80.013	19.993	104.101	19.958	0.629	0.047
18.500	111.048	80.012	19.993	104.109	19.955	0.834	0.045
19.000	111.031	80.011	19.994	104.112	19.955	0.836	0.030
19.500	111.039	80.012	19.994	104.112	19.955	0.816	0.001
20.000	111.023	80.012	19.993	104.111	19.954	0.933	-0.009
20.500	110.997	80.013	19.993	104.111	19.956	0.779	-0.025
21.000	111.066	80.011	19.993	104.111	19.954	0.927	0.000
21.500	111.080	80.012	19.994	104.117	19.951	1.128	0.063
22.000	111.074	80.012	19.993	104.134	19.951	1.099	0.046
22.500	111.077	80.013	19.994	104.155	19.950	1.198	0.003
23.001	111.103	80.011	19.994	104.170	19.948	1.352	0.013
23.501	111.115	80.010	19.993	104.179	19.951	1.120	0.034
24.000	111.163	80.012	19.993	104.187	19.949	1.256	0.049
24.501	111.155	80.010	19.994	104.191	19.945	1.529	0.050
25.001	111.178	80.011	19.994	104.192	19.944	1.644	0.028
25.501	111.192	80.011	19.993	104.190	19.943	1.706	0.026
26.001	111.250	80.013	19.994	104.190	19.946	1.451	0.054
26.501	111.269	80.012	19.993	104.191	19.943	1.712	0.074
27.000	111.273	80.012	19.994	104.191	19.942	1.734	0.050
27.500	111.322	80.011	19.994	104.193	19.944	1.601	0.038
28.000	111.326	80.012	19.993	104.198	19.942	1.724	0.053
28.500	111.374	80.011	19.993	104.205	19.942	1.779	0.052
29.000	111.440	80.012	19.993	104.211	19.941	1.796	0.083
29.500	111.480	80.011	19.993	104.211	19.940	1.908	0.111
30.000	111.506	80.011	19.994	104.210	19.942	1.756	0.086
30.500	111.539	80.011	19.993	104.209	19.940	1.871	0.062
31.000	111.596	80.010	19.993	104.207	19.941	1.828	0.075
31.500	111.609	80.011	19.993	104.206	19.943	1.721	0.080
32.001	111.639	80.011	19.994	104.208	19.943	1.656	0.056
32.501	111.703	80.012	19.994	104.209	19.942	1.781	0.068
33.000	111.731	80.011	19.993	104.211	19.942	1.793	0.093
33.499	111.777	80.012	19.993	104.214	19.936	2.179	0.083
33.999	111.841	80.011	19.993	104.215	19.942	1.793	0.092
34.500	111.891	80.011	19.994	104.214	19.935	2.278	0.112
35.001	111.923	80.011	19.993	104.213	19.939	1.962	0.098
35.500	111.985	80.010	19.993	104.213	19.937	2.079	0.088
35.999	112.028	80.010	19.995	104.213	19.938	2.042	0.099
36.500	112.085	80.009	19.994	104.214	19.939	1.974	0.102
37.001	112.116	80.011	19.994	104.220	19.937	2.116	0.094
37.500	112.185	80.010	19.995	104.224	19.936	2.200	0.095
38.000	112.228	80.011	19.994	104.229	19.935	2.253	0.106
38.501	112.293	80.010	19.994	104.232	19.935	2.226	0.110
39.001	112.360	80.011	19.995	104.239	19.933	2.388	0.120
39.501	112.410	80.011	19.995	104.241	19.934	2.318	0.125
40.001	112.508	80.011	19.994	104.244	19.931	2.528	0.133
40.501	112.535	80.011	19.995	104.247	19.934	2.361	0.137
41.000	112.591	80.012	19.994	104.251	19.934	2.304	0.104
41.500	112.673	80.011	19.993	104.251	19.931	2.567	0.110
42.001	112.744	80.011	19.994	104.252	19.932	2.503	0.145
42.501	112.820	80.013	19.993	104.251	19.933	2.409	0.150
43.001	112.888	80.012	19.993	104.251	19.932	2.491	0.146
43.500	112.978	80.012	19.992	104.251	19.929	2.684	0.151
43.999	113.067	80.014	19.993	104.253	19.926	2.873	0.168
44.499	113.117	80.013	19.993	104.254	19.926	2.889	0.159
44.999	113.204	80.012	19.994	104.253	19.928	2.762	0.138
45.499	113.249	80.012	19.993	104.255	19.930	2.626	0.135
45.999	113.330	80.013	19.994	104.255	19.926	2.893	0.129
46.499	113.471	80.013	19.993	104.255	19.924	3.014	0.174
47.000	113.535	80.013	19.993	104.254	19.924	3.037	0.214
47.500	113.577	80.013	19.993	104.258	19.926	2.920	0.155
47.999	113.676	80.014	19.993	104.264	19.924	3.041	0.123
48.499	113.801	80.014	19.994	104.273	19.923	3.131	0.183
48.999	113.889	80.014	19.992	104.278	19.923	3.123	0.219
49.499	113.974	80.013	19.992	104.285	19.922	3.199	0.192
50.000	114.068	80.014	19.994	104.289	19.924	3.021	0.176
50.501	114.141	80.016	19.995	104.291	19.925	2.973	0.174
51.001	114.233	80.013	19.993	104.292	19.923	3.137	0.166
51.501	114.345	80.014	19.996	104.295	19.921	3.271	0.184
52.001	114.444	80.014	19.994	104.297	19.920	3.347	0.207
52.500	114.530	80.015	19.994	104.297	19.921	3.248	0.198
52.999	114.655	80.014	19.995	104.297	19.922	3.153	0.198
53.500	114.734	80.014	19.993	104.299	19.920	3.344	0.208
54.000	114.882	80.014	19.993	104.298	19.922	3.174	0.216
54.499	114.970	80.013	19.993	104.297	19.922	3.176	0.232
54.999	115.088	80.014	19.994	104.300	19.922	3.143	0.221
55.499	115.198	80.014	19.993	104.301	19.920	3.316	0.217
55.999	115.300	80.013	19.993	104.296	19.922	3.201	0.220
56.500	115.399	80.014	19.993	104.294	19.917	3.554	0.207
57.000	115.537	80.014	19.993	104.294	19.921	3.213	0.219
57.499	115.616	80.013	19.994	104.290	19.922	3.211	0.227
58.000	115.773	80.014	19.992	104.291	19.921	3.219	0.226
58.500	115.865	80.013	19.993	104.293	19.920	3.295	0.243
58.999	116.026	80.014	19.994	104.299	19.919	3.357	0.251
59.499	116.136	80.014	19.994	104.298	19.920	3.296	0.262
59.999	116.265	80.012	19.993	104.298	19.918	3.425	0.255
60.499	116.388	80.013	19.994	104.296	19.919	3.423	0.245
60.999	116.513	80.013	19.993	104.294	19.919	3.402	0.250
61.500	116.662	80.015	19.993	104.292	19.921	3.248	0.261
62.000	116.771	80.012	19.993	104.297	19.919	3.355	0.266
62.500	116.887	80.014	19.995	104.303	19.919	3.415	0.242
63.001	117.031	80.013	19.994	104.307	19.920	3.326	0.242
63.501	117.168	80.013	19.994	104.309	19.921	3.244	0.270
64.001	117.307	80.013	19.993	104.311	19.920	3.326	0.279
64.500	117.468	80.013	19.993	104.312	19.918	3.474	0.288
65.000	117.591	80.013	19.993	104.312	19.921	3.238	0.292
65.500	117.706	80.012	19.995	104.308	19.923	3.135	0.261
66.000	117.835	80.013	19.994	104.307	19.919	3.365	0.241
66.501	117.975	80.012	19.994	104.304	19.920	3.353	0.257
67.001	118.142	80.014	19.994	104.301	19.920	3.316	0.288
67.500	118.273	80.012	19.993	104.301	19.919	3.382	0.302
68.000	118.421	80.014	19.994	104.306	19.921	3.275	0.289
68.500	118.580	80.013	19.994	104.306	19.918	3.439	0.293
68.999	118.743	80.014	19.994	104.305	19.920	3.316	0.315
69.500	118.866	80.013	19.994	104.304	19.919	3.373	0.304
70.001	119.029	80.014	19.995	104.302	19.918	3.453	0.286
70.501	119.160	80.014	19.994	104.299	19.920	3.348	0.290
71.000	119.334	80.014	19.994	104.300	19.920	3.344	0.300
71.499	119.498	80.013	19.994	104.298	19.919	3.371	0.322
72.000	119.639	80.014	19.994	104.298	19.920	3.315	0.322
72.500	119.790	80.014	19.994	104.298	19.919	3.387	0.298
73.000	119.948	80.015	19.994	104.295	19.920	3.309	0.300
73.501	120.086	80.014	19.994	104.293	19.918	3.436	0.302
74.000	120.249	80.014	19.994	104.296	19.918	3.487	0.299
74.500	120.378	80.014	19.994	104.297	19.920	3.286	0.297
75.001	120.516	80.015	19.995	104.297	19.920	3.332	0.280
75.501	120.704	80.015	19.995	104.303	19.919	3.379	0.297
76.001	120.880	80.015	19.993	104.309	19.920	3.338	0.345
76.501	121.065	80.014	19.994	104.311	19.921	3.268	0.362
77.000	121.206	80.015	19.994	104.310	19.919	3.412	0.343
77.500	121.369	80.015	19.993	104.307	19.921	3.225	0.315
78.000	121.585	80.016	19.995	104.302	19.918	3.451	0.341
78.501	121.729	80.014	19.994	104.299	19.920	3.350	0.369
79.000	121.890	80.015	19.994	104.297	19.917	3.510	0.332
79.499	122.054	80.015	19.994	104.299	19.918	3.469	0.315
80.000	122.183	80.014	19.994	104.302	19.921	3.250	0.309
80.500	122.399	80.016	19.994	104.306	19.919	3.367	0.319
81.000	122.601	80.013	19.993	104.309	19.916	3.626	0.381
81.501	122.715	80.014	19.995	104.312	19.917	3.533	0.367
82.001	122.891	80.014	19.996	104.316	19.919	3.392	0.303
82.501	123.052	80.013	19.994	104.320	19.921	3.244	0.314
83.001	123.233	80.013	19.995	104.322	19.922	3.147	0.339
83.500	123.405	80.014	19.994	104.325	19.919	3.404	0.347
84.000	123.569	80.013	19.994	104.329	19.915	3.659	0.344
84.499	123.763	80.012	19.993	104.329	19.919	3.360	0.347
85.000	123.898	80.011	19.994	104.329	19.917	3.543	0.344
85.501	124.132	80.011	19.994	104.329	19.919	3.366	0.349
86.001	124.292	80.012	19.995	104.327	19.918	3.450	0.381
86.501	124.480	80.012	19.993	104.326	19.921	3.284	0.371
87.001	124.625	80.012	19.994	104.325	19.917	3.546	0.340
87.501	124.792	80.011	19.994	104.323	19.918	3.468	0.322
88.001	124.957	80.012	19.994	104.324	19.920	3.300	0.322
88.501	125.149	80.011	19.995	104.324	19.919	3.417	0.345
89.000	125.362	80.012	19.994	104.326	19.916	3.604	0.381
89.499	125.561	80.011	19.994	104.327	19.918	3.453	0.408
89.999	125.729	80.011	19.994	104.326	19.914	3.759	0.390
90.499	125.904	80.013	19.994	104.322	19.916	3.619	0.355
90.999	126.092	80.013	19.996	104.320	19.914	3.730	0.353
91.499	126.275	80.010	19.994	104.314	19.914	3.728	0.367
91.999	126.471	80.012	19.994	104.308	19.916	3.630	0.374
92.500	126.641	80.011	19.994	104.306	19.912	3.872	0.372
93.001	126.820	80.012	19.994	104.307	19.914	3.751	0.358
93.501	127.001	80.012	19.995	104.308	19.915	3.702	0.355
94.001	127.215	80.011	19.995	104.313	19.915	3.687	0.377
94.501	127.406	80.011	19.994	104.310	19.917	3.549	0.400
95.001	127.560	80.011	19.995	104.286	19.914	3.761	0.375
95.501	127.737	80.011	19.995	104.270	19.914	3.722	0.338
96.000	127.983	80.010	19.994	104.265	19.913	3.839	0.377
96.499	128.170	80.010	19.995	104.265	19.916	3.617	0.428
96.999	128.349	80.010	19.995	104.275	19.911	3.966	0.399
97.499	128.512	80.011	19.995	104.322	19.914	3.748	0.354
97.999	128.748	80.011	19.994	104.357	19.912	3.908	0.371
98.499	128.973	80.011	19.994	104.365	19.917	3.498	0.430
99.000	129.144	80.010	19.995	104.360	19.918	3.490	0.428
99.501	129.385	80.010	19.994	104.355	19.915	3.658	0.403
100.001	129.546	80.010	19.995	104.334	19.915	3.644	0.407
100.500	129.759	80.010	19.995	104.318	19.915	3.667	0.388
100.999	129.920	80.012	19.995	104.317	19.915	3.701	0.374
101.500	130.103	80.011	19.994	104.319	19.915	3.640	0.359
102.001	130.331	80.012	19.994	104.319	19.915	3.691	0.378
102.501	130.492	80.011	19.995	104.313	19.913	3.785	0.400
103.001	130.724	80.011	19.996	104.307	19.915	3.693	0.391
103.500	130.874	80.012	19.994	104.304	19.914	3.711	0.387
103.999	131.101	80.011	19.994	104.305	19.915	3.689	0.379
104.501	131.315	80.012	19.995	104.308	19.914	3.775	0.409
105.001	131.529	80.012	19.994	104.313	19.914	3.773	0.434
105.500	131.678	80.011	19.995	104.316	19.915	3.670	0.395
106.000	131.872	80.012	19.995	104.321	19.915	3.644	0.353
106.500	132.105	80.012	19.994	104.324	19.912	3.880	0.385
107.001	132.310	80.011	19.994	104.324	19.915	3.695	0.433
107.501	132.560	80.011	19.994	104.325	19.916	3.598	0.447
108.001	132.742	80.014	19.994	104.327	19.914	3.746	0.444
108.501	132.940	80.012	19.994	104.326	19.911	3.951	0.406
109.001	133.156	80.013	19.994	104.327	19.911	3.925	0.397
109.501	133.352	80.012	19.994	104.327	19.912	3.861	0.413
110.001	133.529	80.012	19.995	104.326	19.910	4.005	0.393
110.501	133.771	80.013	19.994	104.323	19.913	3.800	0.396
111.000	133.984	80.012	19.994	104.321	19.913	3.830	0.437
111.500	134.195	80.011	19.995	104.316	19.913	3.816	0.439
112.001	134.383	80.012	19.995	104.317	19.914	3.758	0.412
112.501	134.645	80.013	19.996	104.319	19.913	3.820	0.425
113.001	134.834	80.012	19.994	104.321	19.915	3.697	0.450
113.501	135.013	80.012	19.994	104.323	19.914	3.734	0.410
114.001	135.261	80.012	19.995	104.326	19.916	3.621	0.398
114.500	135.464	80.012	19.994	104.325	19.914	3.719	0.439
114.999	135.687	80.012	19.993	104.326	19.912	3.861	0.438
115.499	135.841	80.014	19.994	104.326	19.914	3.771	0.401
115.999	136.093	80.012	19.994	104.326	19.914	3.775	0.392
116.500	136.312	80.012	19.993	104.326	19.917	3.522	0.438
117.000	136.512	80.011	19.995	104.327	19.919	3.358	0.445
117.500	136.766	80.011	19.995	104.327	19.916	3.631	0.437
118.001	136.978	80.011	19.993	104.325	19.916	3.592	0.460
118.501	137.184	80.012	19.994	104.325	19.915	3.650	0.442
119.000	137.390	80.011	19.993	104.325	19.916	3.623	0.415
119.499	137.600	80.012	19.993	104.325	19.916	3.610	0.414
120.001	137.816	80.012	19.993	104.324	19.917	3.526	0.421
120.501	138.039	80.011	19.994	104.324	19.915	3.641	0.432
121.001	138.311	80.011	19.994	104.324	19.918	3.461	0.467
121.501	138.528	80.012	19.993	104.324	19.917	3.498	0.492
121.999	138.692	80.012	19.993	104.324	19.915	3.656	0.435
122.501	138.914	80.012	19.993	104.324	19.918	3.483	0.384
123.001	139.153	80.012	19.994	104.327	19.916	3.607	0.424
123.501	139.401	80.012	19.993	104.327	19.915	3.676	0.474
124.000	139.603	80.012	19.993	104.327	19.915	3.703	0.469
124.500	139.834	80.012	19.993	104.328	19.914	3.732	0.441
125.000	140.071	80.012	19.994	104.330	19.917	3.547	0.450
125.499	140.280	80.012	19.993	104.333	19.920	3.330	0.456
126.000	140.533	80.014	19.994	104.335	19.919	3.397	0.454
126.501	140.737	80.012	19.994	104.335	19.917	3.547	0.460
127.001	140.971	80.012	19.993	104.335	19.918	3.486	0.448
127.501	141.224	80.013	19.993	104.334	19.916	3.619	0.463
128.000	141.477	80.013	19.994	104.331	19.917	3.547	0.496
128.500	141.656	80.013	19.994	104.331	19.916	3.623	0.469
129.000	141.890	80.012	19.993	104.331	19.918	3.453	0.422
129.500	142.093	80.013	19.993	104.332	19.917	3.535	0.425
130.000	142.352	80.013	19.994	104.332	19.917	3.502	0.450
130.500	142.600	80.015	19.994	104.332	19.918	3.488	0.485
131.000	142.840	80.013	19.994	104.331	19.915	3.697	0.497
131.501	143.080	80.012	19.995	104.330	19.917	3.555	0.484
132.001	143.340	80.013	19.993	104.328	19.915	3.678	0.490
132.500	143.565	80.014	19.993	104.327	19.917	3.514	0.493
133.000	143.810	80.014	19.994	104.326	19.917	3.537	0.477
133.500	144.039	80.015	19.993	104.327	19.916	3.607	0.472
134.000	144.267	80.015	19.995	104.327	19.917	3.561	0.466
134.500	144.533	80.015	19.992	104.327	19.916	3.568	0.476
135.000	144.735	80.013	19.994	104.327	19.913	3.781	0.481
135.500	144.992	80.014	19.993	104.325	19.912	3.878	0.463
136.000	145.229	80.015	19.994	104.322	19.916	3.607	0.476
136.500	145.479	80.014	19.993	104.322	19.916	3.619	0.491
137.000	145.686	80.013	19.994	104.323	19.916	3.574	0.472
137.500	145.951	80.014	19.993	104.323	19.915	3.650	0.465
138.000	146.143	80.014	19.993	104.325	19.914	3.752	0.464
138.500	146.409	80.013	19.993	104.327	19.922	3.153	0.458
139.000	146.641	80.013	19.994	104.327	19.917	3.555	0.478
139.500	146.917	80.012	19.994	104.326	19.921	3.217	0.503
140.000	147.115	80.014	19.994	104.326	19.919	3.389	0.491
140.500	147.363	80.013	19.994	104.326	19.918	3.443	0.460
141.001	147.619	80.013	19.992	104.326	19.920	3.351	0.475
141.501	147.874	80.013	19.995	104.326	19.919	3.379	0.507
142.000	148.104	80.014	19.994	104.329	19.917	3.498	0.498
142.500	148.360	80.013	19.994	104.329	19.920	3.299	0.486
143.000	148.581	80.012	19.993	104.329	19.918	3.443	0.482
143.500	148.839	80.012	19.993	104.330	19.920	3.307	0.478
144.001	149.085	80.013	19.994	104.331	19.920	3.326	0.491
144.501	149.325	80.012	19.994	104.328	19.919	3.371	0.495
145.000	149.551	80.013	19.993	104.328	19.924	3.059	0.476
145.500	149.823	80.013	19.993	104.328	19.922	3.147	0.482
146.001	150.036	80.013	19.993	104.327	19.921	3.266	0.492
146.500	150.282	80.011	19.993	104.325	19.920	3.346	0.472
147.000	150.554	80.013	19.992	104.326	19.924	3.061	0.488
147.501	150.795	80.013	19.993	104.326	19.921	3.272	0.516
148.001	151.015	80.012	19.992	104.326	19.918	3.459	0.487
148.501	151.286	80.014	19.994	104.326	19.921	3.281	0.476
149.001	151.510	80.012	19.993	104.326	19.923	3.096	0.492
149.501	151.712	80.013	19.993	104.326	19.920	3.322	0.460
150.001	152.005	80.014	19.993	104.325	19.923	3.123	0.461
150.500	152.228	80.014	19.993	104.321	19.924	3.051	0.506
151.000	152.486	80.015	19.994	104.317	19.922	3.193	0.499
151.501	152.725	80.014	19.992	104.315	19.924	3.008	0.489
152.000	152.963	80.014	19.994	104.310	19.925	2.979	0.487
152.500	153.258	80.014	19.992	104.309	19.923	3.141	0.505
153.000	153.497	80.014	19.993	104.309	19.924	3.018	0.533
153.500	153.752	80.014	19.993	104.314	19.925	2.981	0.513
154.000	153.952	80.014	19.993	104.316	19.925	2.940	0.474
154.501	154.209	80.014	19.994	104.317	19.927	2.852	0.456
155.000	154.444	80.014	19.993	104.316	19.925	2.995	0.475
155.500	154.689	80.014	19.994	104.316	19.926	2.866	0.486
156.001	154.944	80.015	19.992	104.314	19.926	2.897	0.490
156.500	155.163	80.014	19.994	104.317	19.925	2.977	0.487
157.000	155.390	80.014	19.993	104.321	19.925	2.973	0.460
157.500	155.677	80.014	19.993	104.322	19.927	2.788	0.480
158.000	155.936	80.015	19.993	104.323	19.929	2.706	0.530
158.500	156.187	80.015	19.994	104.319	19.926	2.905	0.528
159.000	156.444	80.015	19.994	104.319	19.926	2.875	0.510
159.501	156.707	80.014	19.992	104.317	19.928	2.766	0.514
160.001	156.964	80.016	19.994	104.314	19.928	2.754	0.520
160.501	157.176	80.015	19.993	104.314	19.925	2.980	0.494
161.000	157.422	80.016	19.992	104.316	19.924	3.004	0.463
161.500	157.651	80.015	19.993	104.310	19.923	3.082	0.466
162.001	157.924	80.016	19.993	104.310	19.924	3.002	0.489
162.501	158.169	80.015	19.994	104.312	19.926	2.871	0.510
163.001	158.432	80.013	19.993	104.311	19.926	2.916	0.513
163.500	158.676	80.015	19.993	104.309	19.925	2.948	0.507
164.000	158.893	80.013	19.993	104.311	19.927	2.799	0.483
164.501	159.142	80.015	19.992	104.306	19.927	2.838	0.464
165.000	159.395	80.013	19.993	104.301	19.925	2.932	0.485
165.500	159.636	80.014	19.993	104.304	19.925	2.992	0.498
166.001	159.897	80.014	19.993	104.309	19.924	3.012	0.498
166.501	160.149	80.014	19.994	104.307	19.927	2.817	0.507
167.001	160.458	80.014	19.993	104.312	19.928	2.760	0.536
167.501	160.706	80.013	19.994	104.317	19.926	2.902	0.559
168.001	160.920	80.012	19.995	104.314	19.928	2.756	0.510
168.501	161.170	80.013	19.994	104.312	19.929	2.710	0.463
169.000	161.421	80.012	19.994	104.311	19.927	2.827	0.483
169.500	161.673	80.011	19.994	104.307	19.928	2.720	0.502
170.000	161.946	80.011	19.994	104.301	19.929	2.681	0.514
170.500	162.188	80.012	19.994	104.298	19.930	2.626	0.520
171.000	162.427	80.011	19.994	104.293	19.929	2.653	0.498
171.500	162.702	80.012	19.994	104.292	19.930	2.618	0.497
172.000	162.898	80.012	19.994	104.293	19.931	2.567	0.492
172.500	163.209	80.012	19.994	104.294	19.928	2.766	0.489
