Sample ID:	C:\MCC\MCC Cal\Test\Rayon_Bamboo_Pillowcase_MCC_30K_min_220112_R2.txt
Sample Weight (mg):	4.39
Heating Rate (C/s):	0.5
Combustor Temp (C):	900
N2 Flow Rate (cc/min):	80
O2 Flow Rate (cc/min):	20
Calibration File:	C:\MCC\MCC Cal\Coeff1 JN10440_30_210304.txt.txt
T Correction Coefficients:	0	1.024463	0
Time Shift (s):	14
*
Time (s)	Temperature (C)	N2 flow rate (cc/min)	O2 flow rate (cc/min)	Flow Rate (cc/min)	Oxygen (%)	HRR (W/g)	Heating rate (C/s)
0.000	113.940	80.009	19.995	104.058	20.048	-0.140	0.025
0.499	113.885	80.008	19.997	104.058	20.048	-0.173	0.018
1.000	113.928	80.009	19.994	104.058	20.046	0.002	-0.010
1.500	113.883	80.009	19.996	104.058	20.047	-0.079	-0.007
2.000	113.904	80.008	19.995	104.057	20.047	-0.073	-0.013
2.500	113.949	80.010	19.996	104.057	20.044	0.151	0.021
3.000	113.911	80.009	19.995	104.057	20.046	0.000	0.037
3.500	113.928	80.010	19.993	104.056	20.047	-0.069	-0.007
4.000	113.884	80.011	19.992	104.056	20.043	0.220	-0.024
4.500	113.848	80.010	19.993	104.056	20.042	0.258	-0.053
5.000	113.852	80.009	19.995	104.056	20.046	-0.031	-0.056
5.500	113.863	80.010	19.994	104.056	20.045	0.055	-0.009
6.000	113.889	80.011	19.994	104.057	20.046	-0.045	0.025
6.500	113.912	80.010	19.995	104.061	20.044	0.153	0.043
7.000	113.870	80.011	19.994	104.068	20.044	0.090	0.015
7.500	113.888	80.010	19.995	104.076	20.044	0.144	-0.021
8.000	113.883	80.011	19.994	104.079	20.044	0.151	-0.005
8.500	113.905	80.011	19.995	104.084	20.043	0.216	0.015
9.001	113.873	80.012	19.995	104.086	20.043	0.230	0.004
9.501	113.863	80.010	19.993	104.082	20.043	0.220	-0.026
10.001	113.884	80.012	19.994	104.077	20.045	0.079	-0.016
10.500	113.896	80.011	19.995	104.076	20.042	0.283	0.022
11.000	113.886	80.011	19.994	104.074	20.041	0.344	0.018
11.500	113.899	80.011	19.994	104.073	20.041	0.338	0.002
12.000	113.914	80.011	19.994	104.077	20.040	0.387	0.016
12.501	113.937	80.012	19.994	104.080	20.039	0.476	0.033
13.000	113.900	80.011	19.995	104.085	20.039	0.505	0.012
13.499	113.926	80.011	19.994	104.089	20.038	0.590	-0.012
14.000	113.955	80.012	19.995	104.092	20.039	0.470	0.022
14.501	113.919	80.012	19.995	104.092	20.040	0.446	0.024
15.001	113.925	80.012	19.995	104.093	20.040	0.411	-0.018
15.501	113.948	80.012	19.994	104.094	20.038	0.586	-0.000
16.001	113.952	80.011	19.994	104.095	20.039	0.501	0.027
16.501	113.937	80.011	19.995	104.095	20.037	0.680	0.007
17.001	113.974	80.011	19.995	104.096	20.041	0.340	0.006
17.501	113.970	80.011	19.995	104.097	20.040	0.448	0.028
18.001	113.970	80.011	19.995	104.097	20.035	0.786	0.014
18.501	113.917	80.011	19.995	104.097	20.037	0.676	-0.028
19.000	113.987	80.010	19.995	104.095	20.038	0.562	-0.018
19.500	113.992	80.011	19.993	104.094	20.040	0.411	0.046
20.001	114.010	80.011	19.994	104.093	20.037	0.678	0.049
20.500	113.990	80.010	19.995	104.096	20.035	0.766	0.011
21.000	114.016	80.010	19.994	104.097	20.037	0.617	0.002
21.501	114.052	80.009	19.994	104.101	20.034	0.847	0.034
22.001	114.064	80.008	19.997	104.109	20.035	0.772	0.056
22.500	114.073	80.007	19.995	104.118	20.035	0.823	0.035
23.000	114.094	80.009	19.996	104.126	20.035	0.764	0.025
23.500	114.091	80.008	19.996	104.131	20.031	1.092	0.024
24.001	114.115	80.008	19.995	104.138	20.030	1.149	0.019
24.500	114.113	80.009	19.994	104.139	20.029	1.222	0.021
25.000	114.147	80.009	19.995	104.139	20.032	1.002	0.027
25.500	114.148	80.008	19.996	104.147	20.027	1.377	0.033
26.000	114.181	80.006	19.995	104.161	20.025	1.538	0.034
26.500	114.210	80.007	19.996	104.176	20.026	1.452	0.048
27.000	114.231	80.009	19.995	104.193	20.026	1.448	0.056
27.500	114.246	80.007	19.995	104.208	20.024	1.582	0.043
28.000	114.267	80.007	19.995	104.215	20.022	1.729	0.036
28.501	114.305	80.008	19.995	104.216	20.025	1.560	0.048
29.001	114.347	80.009	19.994	104.217	20.021	1.809	0.069
29.501	114.367	80.008	19.995	104.215	20.023	1.701	0.071
30.001	114.405	80.008	19.994	104.214	20.022	1.784	0.060
30.500	114.449	80.007	19.995	104.214	20.018	2.073	0.070
31.001	114.514	80.009	19.995	104.214	20.019	1.978	0.096
31.500	114.613	80.007	19.995	104.215	20.019	1.945	0.136
32.000	114.587	80.009	19.995	104.220	20.018	2.084	0.118
32.500	114.670	80.007	19.996	104.223	20.019	1.982	0.065
33.001	114.679	80.008	19.995	104.223	20.018	2.037	0.075
33.500	114.735	80.008	19.994	104.223	20.018	2.086	0.079
34.000	114.817	80.007	19.995	104.222	20.019	1.964	0.102
34.500	114.830	80.008	19.996	104.218	20.017	2.139	0.116
35.000	114.887	80.006	19.996	104.215	20.015	2.286	0.082
35.500	114.948	80.008	19.996	104.216	20.017	2.129	0.094
36.000	114.999	80.008	19.995	104.215	20.018	2.021	0.115
36.500	115.053	80.008	19.995	104.215	20.018	2.035	0.108
37.000	115.098	80.008	19.996	104.215	20.016	2.212	0.102
37.501	115.186	80.009	19.995	104.212	20.018	2.080	0.116
38.001	115.235	80.007	19.995	104.211	20.018	2.041	0.135
38.501	115.306	80.009	19.995	104.213	20.017	2.157	0.128
39.000	115.328	80.009	19.995	104.214	20.018	2.062	0.107
39.500	115.415	80.009	19.994	104.215	20.016	2.214	0.101
40.001	115.458	80.008	19.995	104.216	20.019	1.948	0.119
40.500	115.546	80.009	19.994	104.216	20.019	1.944	0.130
40.999	115.560	80.009	19.995	104.215	20.016	2.180	0.117
41.500	115.678	80.007	19.995	104.217	20.015	2.241	0.117
42.001	115.776	80.009	19.993	104.220	20.017	2.125	0.174
42.501	115.800	80.009	19.993	104.225	20.014	2.356	0.170
43.001	115.878	80.009	19.994	104.229	20.017	2.107	0.112
43.500	115.938	80.008	19.995	104.236	20.014	2.350	0.120
44.000	116.008	80.009	19.994	104.241	20.016	2.229	0.134
44.501	116.093	80.009	19.994	104.243	20.013	2.460	0.142
45.001	116.180	80.007	19.994	104.247	20.015	2.286	0.163
45.500	116.258	80.008	19.993	104.250	20.016	2.177	0.169
46.000	116.360	80.007	19.994	104.250	20.014	2.374	0.172
46.500	116.433	80.008	19.994	104.251	20.015	2.256	0.177
47.001	116.524	80.009	19.993	104.249	20.013	2.429	0.169
47.501	116.595	80.009	19.994	104.246	20.012	2.472	0.163
48.001	116.682	80.008	19.993	104.246	20.013	2.399	0.160
48.501	116.781	80.009	19.993	104.244	20.014	2.348	0.172
49.001	116.834	80.008	19.993	104.242	20.012	2.523	0.169
49.501	116.955	80.008	19.994	104.245	20.013	2.405	0.163
50.001	117.044	80.009	19.994	104.247	20.013	2.448	0.192
50.501	117.114	80.009	19.993	104.247	20.014	2.313	0.184
51.001	117.238	80.008	19.994	104.249	20.014	2.360	0.177
51.501	117.336	80.009	19.993	104.251	20.012	2.483	0.209
52.000	117.411	80.008	19.994	104.257	20.014	2.387	0.198
52.499	117.548	80.007	19.994	104.265	20.009	2.689	0.192
53.000	117.661	80.007	19.993	104.272	20.009	2.705	0.231
53.501	117.700	80.008	19.994	104.278	20.011	2.538	0.201
54.000	117.846	80.009	19.994	104.279	20.007	2.848	0.169
54.499	117.909	80.009	19.994	104.278	20.009	2.732	0.197
54.999	118.029	80.009	19.994	104.278	20.008	2.817	0.196
55.500	118.132	80.008	19.994	104.279	20.012	2.518	0.203
56.000	118.272	80.007	19.996	104.280	20.012	2.487	0.233
56.500	118.381	80.009	19.996	104.286	20.013	2.436	0.245
57.000	118.509	80.008	19.995	104.289	20.006	2.930	0.242
57.500	118.596	80.008	19.995	104.290	20.003	3.154	0.226
58.000	118.701	80.007	19.994	104.292	20.004	3.070	0.204
58.500	118.792	80.009	19.994	104.292	20.004	3.064	0.195
58.999	118.937	80.008	19.995	104.293	20.007	2.858	0.216
59.500	119.070	80.009	19.994	104.295	20.008	2.813	0.257
60.000	119.159	80.008	19.994	104.298	20.004	3.058	0.250
60.500	119.297	80.009	19.995	104.300	20.001	3.345	0.225
60.999	119.436	80.008	19.993	104.300	20.006	2.915	0.252
61.500	119.515	80.008	19.995	104.301	20.005	3.001	0.247
62.000	119.703	80.008	19.996	104.299	20.006	2.928	0.243
62.499	119.790	80.009	19.996	104.299	20.004	3.093	0.272
63.000	119.947	80.009	19.994	104.299	20.004	3.087	0.260
63.500	120.110	80.008	19.996	104.305	20.000	3.401	0.281
64.000	120.232	80.009	19.996	104.306	20.001	3.282	0.302
64.500	120.398	80.009	19.994	104.308	20.003	3.142	0.287
65.000	120.505	80.010	19.994	104.311	20.000	3.415	0.281
65.501	120.644	80.009	19.994	104.315	20.002	3.260	0.260
66.000	120.761	80.010	19.995	104.312	19.998	3.504	0.251
66.499	120.913	80.011	19.994	104.315	19.997	3.596	0.262
66.999	121.058	80.011	19.994	104.319	20.000	3.396	0.283
67.499	121.202	80.009	19.993	104.321	20.000	3.423	0.293
67.999	121.366	80.010	19.995	104.323	19.999	3.429	0.299
68.499	121.494	80.011	19.994	104.322	19.997	3.643	0.300
69.000	121.635	80.011	19.994	104.317	19.997	3.588	0.280
69.500	121.808	80.011	19.994	104.315	19.996	3.715	0.292
69.999	121.977	80.012	19.993	104.315	20.000	3.380	0.328
70.500	122.111	80.011	19.994	104.308	19.996	3.682	0.322
71.001	122.249	80.011	19.993	104.311	19.999	3.462	0.288
71.500	122.437	80.010	19.995	104.318	19.997	3.615	0.299
72.000	122.584	80.012	19.993	104.318	19.995	3.753	0.330
72.500	122.798	80.009	19.994	104.316	19.997	3.578	0.348
73.000	122.898	80.010	19.994	104.321	19.999	3.451	0.337
73.500	123.097	80.009	19.994	104.323	19.995	3.768	0.307
73.999	123.221	80.011	19.994	104.323	19.995	3.741	0.311
74.499	123.392	80.011	19.994	104.323	19.998	3.549	0.309
75.000	123.613	80.011	19.993	104.322	19.997	3.604	0.344
75.500	123.695	80.011	19.994	104.323	19.997	3.633	0.347
76.000	123.940	80.011	19.995	104.322	19.995	3.761	0.315
76.500	124.056	80.011	19.994	104.317	19.997	3.604	0.344
77.000	124.153	80.010	19.994	104.317	19.999	3.453	0.287
77.500	124.370	80.011	19.995	104.322	19.998	3.541	0.264
78.000	124.528	80.009	19.994	104.322	19.997	3.592	0.345
78.500	124.748	80.010	19.994	104.323	19.996	3.696	0.376
78.999	124.937	80.010	19.993	104.324	19.997	3.586	0.393
79.499	125.067	80.009	19.994	104.325	19.997	3.596	0.364
80.000	125.242	80.010	19.995	104.325	19.994	3.796	0.312
80.500	125.401	80.010	19.994	104.324	19.997	3.641	0.319
81.000	125.573	80.010	19.993	104.324	19.997	3.641	0.333
81.500	125.767	80.009	19.992	104.327	19.993	3.910	0.348
82.000	125.975	80.009	19.994	104.326	19.993	3.933	0.384
82.500	126.144	80.011	19.995	104.327	19.996	3.721	0.390
83.000	126.298	80.011	19.994	104.327	19.997	3.631	0.350
83.500	126.497	80.009	19.995	104.325	19.992	3.984	0.338
84.000	126.691	80.010	19.996	104.322	19.997	3.641	0.373
84.500	126.881	80.009	19.994	104.324	19.996	3.666	0.389
84.999	127.067	80.010	19.994	104.323	19.995	3.737	0.380
85.500	127.224	80.010	19.995	104.320	19.996	3.654	0.359
86.000	127.439	80.009	19.994	104.319	19.996	3.674	0.358
86.500	127.630	80.010	19.993	104.317	19.996	3.656	0.389
87.000	127.821	80.009	19.995	104.309	19.997	3.634	0.394
87.500	128.008	80.010	19.995	104.307	19.998	3.515	0.380
88.000	128.203	80.011	19.994	104.311	19.997	3.576	0.380
88.500	128.398	80.010	19.994	104.311	19.996	3.715	0.386
89.000	128.592	80.011	19.994	104.314	19.999	3.454	0.389
89.500	128.808	80.011	19.993	104.322	19.998	3.515	0.399
90.000	129.000	80.009	19.995	104.326	19.996	3.664	0.408
90.500	129.179	80.010	19.995	104.325	19.995	3.737	0.389
91.000	129.385	80.009	19.992	104.327	19.996	3.670	0.378
91.500	129.619	80.009	19.994	104.331	19.996	3.654	0.412
92.000	129.763	80.010	19.993	104.331	19.998	3.545	0.409
92.499	129.999	80.009	19.993	104.330	19.998	3.568	0.380
93.000	130.160	80.010	19.993	104.330	19.997	3.586	0.389
93.500	130.371	80.012	19.993	104.331	19.999	3.439	0.385
94.000	130.578	80.012	19.994	104.327	19.999	3.464	0.395
94.500	130.740	80.010	19.995	104.326	20.000	3.419	0.393
95.000	130.961	80.010	19.993	104.327	19.997	3.627	0.376
95.500	131.134	80.010	19.993	104.328	19.997	3.603	0.388
96.000	131.344	80.012	19.995	104.329	19.996	3.678	0.389
96.500	131.510	80.011	19.995	104.338	19.998	3.546	0.380
97.000	131.770	80.012	19.995	104.341	19.994	3.798	0.401
97.500	132.003	80.011	19.994	104.341	19.994	3.817	0.459
98.000	132.205	80.010	19.994	104.341	19.995	3.792	0.464
98.500	132.384	80.011	19.994	104.339	19.996	3.650	0.408
98.999	132.588	80.010	19.994	104.334	19.998	3.566	0.382
99.500	132.810	80.012	19.994	104.331	19.997	3.637	0.405
100.000	133.044	80.010	19.995	104.331	19.997	3.625	0.441
100.500	133.274	80.010	19.994	104.331	19.998	3.572	0.460
100.999	133.446	80.010	19.994	104.330	19.998	3.556	0.433
101.500	133.651	80.009	19.995	104.328	19.993	3.921	0.390
102.000	133.887	80.009	19.994	104.329	19.992	4.006	0.409
102.500	134.138	80.010	19.993	104.329	19.995	3.768	0.464
103.000	134.320	80.010	19.994	104.327	19.997	3.623	0.459
103.500	134.545	80.010	19.995	104.326	19.995	3.746	0.420
104.001	134.755	80.008	19.996	104.327	19.996	3.668	0.422
104.501	134.991	80.009	19.994	104.326	19.997	3.646	0.440
105.000	135.197	80.008	19.994	104.325	19.996	3.674	0.444
105.500	135.426	80.010	19.993	104.327	19.994	3.809	0.439
106.000	135.637	80.007	19.994	104.329	19.994	3.800	0.438
106.500	135.899	80.009	19.994	104.331	19.994	3.835	0.456
107.000	136.091	80.009	19.994	104.332	19.996	3.686	0.463
107.500	136.327	80.008	19.993	104.333	19.998	3.527	0.441
108.000	136.525	80.008	19.993	104.334	19.996	3.692	0.431
108.500	136.802	80.009	19.994	104.334	19.993	3.902	0.454
109.000	136.989	80.008	19.994	104.334	19.997	3.615	0.470
109.500	137.218	80.008	19.994	104.334	19.995	3.735	0.440
110.001	137.440	80.009	19.994	104.334	19.996	3.690	0.433
110.500	137.663	80.008	19.994	104.334	19.998	3.539	0.448
110.999	137.864	80.009	19.994	104.334	19.999	3.466	0.435
111.500	138.128	80.009	19.993	104.334	19.995	3.780	0.445
112.000	138.328	80.010	19.994	104.334	19.997	3.623	0.464
112.500	138.607	80.011	19.993	104.335	19.997	3.645	0.471
113.000	138.813	80.009	19.994	104.334	19.998	3.552	0.482
113.500	139.044	80.010	19.993	104.335	19.997	3.603	0.461
114.000	139.292	80.009	19.994	104.335	20.000	3.376	0.458
114.500	139.509	80.010	19.993	104.335	19.999	3.484	0.472
115.000	139.772	80.010	19.994	104.335	19.996	3.659	0.472
115.500	139.993	80.009	19.994	104.335	19.998	3.555	0.482
116.000	140.224	80.009	19.995	104.333	19.998	3.568	0.468
116.500	140.459	80.010	19.994	104.332	19.997	3.592	0.459
116.999	140.695	80.008	19.994	104.331	19.996	3.649	0.468
117.499	140.949	80.008	19.995	104.331	19.997	3.598	0.481
117.999	141.137	80.010	19.994	104.330	20.000	3.425	0.466
118.500	141.422	80.009	19.995	104.331	19.999	3.478	0.457
119.001	141.659	80.009	19.994	104.331	20.000	3.415	0.498
119.500	141.887	80.009	19.995	104.331	19.997	3.590	0.494
119.999	142.092	80.008	19.995	104.331	19.999	3.444	0.449
120.499	142.358	80.009	19.995	104.331	20.001	3.338	0.452
120.999	142.598	80.009	19.994	104.330	19.999	3.466	0.488
121.500	142.849	80.010	19.995	104.330	19.997	3.639	0.499
122.001	143.066	80.009	19.995	104.330	19.999	3.484	0.480
122.500	143.316	80.008	19.995	104.330	19.998	3.566	0.468
123.000	143.557	80.008	19.994	104.331	19.998	3.548	0.479
123.501	143.778	80.009	19.996	104.331	19.998	3.545	0.477
124.000	144.044	80.010	19.995	104.331	19.995	3.743	0.474
124.500	144.341	80.007	19.995	104.331	19.998	3.523	0.525
125.001	144.581	80.008	19.995	104.329	19.996	3.688	0.550
125.501	144.752	80.007	19.996	104.324	19.998	3.566	0.474
126.000	145.045	80.009	19.995	104.323	19.997	3.578	0.437
126.500	145.273	80.008	19.995	104.322	19.998	3.535	0.493
127.000	145.550	80.009	19.995	104.322	19.999	3.456	0.513
127.500	145.784	80.008	19.995	104.322	19.999	3.496	0.508
128.000	146.032	80.008	19.997	104.325	19.998	3.572	0.496
128.500	146.327	80.010	19.996	104.322	19.998	3.564	0.512
129.000	146.511	80.008	19.995	104.324	19.997	3.588	0.511
129.500	146.766	80.009	19.996	104.324	19.997	3.594	0.459
130.000	147.004	80.007	19.995	104.324	19.997	3.592	0.466
130.500	147.238	80.008	19.995	104.326	19.995	3.759	0.483
131.000	147.483	80.008	19.994	104.328	19.995	3.739	0.475
131.500	147.758	80.008	19.997	104.328	19.999	3.499	0.499
132.000	148.005	80.009	19.995	104.328	19.997	3.590	0.521
132.500	148.248	80.009	19.994	104.328	19.998	3.511	0.506
133.000	148.519	80.009	19.995	104.329	19.994	3.815	0.502
133.500	148.735	80.008	19.995	104.329	19.995	3.782	0.501
134.000	149.001	80.008	19.993	104.329	19.999	3.435	0.484
134.500	149.244	80.008	19.994	104.328	19.997	3.629	0.495
135.001	149.523	80.009	19.994	104.329	19.998	3.515	0.516
135.500	149.765	80.008	19.993	104.329	19.998	3.504	0.522
135.999	149.992	80.007	19.994	104.329	19.996	3.700	0.495
136.500	150.221	80.008	19.995	104.329	19.997	3.610	0.462
137.000	150.485	80.009	19.994	104.330	19.995	3.722	0.474
137.499	150.756	80.009	19.994	104.329	19.994	3.853	0.514
138.000	150.994	80.008	19.994	104.329	19.997	3.582	0.522
138.501	151.249	80.009	19.993	104.327	19.995	3.724	0.501
139.000	151.478	80.008	19.993	104.325	19.997	3.647	0.488
139.500	151.746	80.009	19.994	104.325	20.000	3.394	0.491
140.000	152.009	80.009	19.994	104.322	19.995	3.735	0.514
140.500	152.253	80.010	19.994	104.321	19.997	3.627	0.519
141.001	152.529	80.008	19.994	104.322	19.999	3.435	0.514
141.501	152.743	80.008	19.993	104.324	19.997	3.612	0.505
142.000	152.991	80.009	19.995	104.324	19.997	3.647	0.476
142.500	153.257	80.007	19.995	104.327	19.998	3.543	0.489
143.001	153.521	80.010	19.995	104.330	19.998	3.508	0.522
143.500	153.764	80.009	19.995	104.330	20.001	3.315	0.518
144.000	154.012	80.009	19.994	104.331	19.996	3.670	0.499
144.500	154.265	80.008	19.994	104.329	19.999	3.437	0.496
145.000	154.501	80.009	19.995	104.326	19.997	3.576	0.495
145.500	154.782	80.009	19.993	104.322	19.997	3.576	0.503
146.000	155.028	80.010	19.994	104.321	19.995	3.730	0.522
146.500	155.295	80.010	19.994	104.317	20.002	3.247	0.520
146.999	155.533	80.009	19.995	104.315	20.000	3.392	0.509
147.499	155.794	80.011	19.994	104.316	19.995	3.754	0.502
147.999	156.041	80.009	19.994	104.318	19.998	3.516	0.504
148.500	156.268	80.009	19.994	104.314	19.997	3.640	0.491
149.000	156.555	80.010	19.994	104.311	19.999	3.494	0.494
149.500	156.810	80.010	19.994	104.311	20.001	3.345	0.528
150.000	157.055	80.010	19.993	104.310	20.000	3.394	0.521
150.500	157.331	80.010	19.994	104.312	20.000	3.422	0.511
151.000	157.579	80.010	19.994	104.318	20.000	3.400	0.523
151.500	157.834	80.009	19.994	104.317	19.998	3.516	0.513
152.000	158.099	80.010	19.994	104.316	19.999	3.448	0.511
152.500	158.360	80.010	19.994	104.314	20.000	3.351	0.523
153.000	158.609	80.010	19.993	104.309	20.000	3.404	0.518
153.500	158.831	80.010	19.994	104.307	19.999	3.495	0.491
154.000	159.105	80.010	19.994	104.313	19.999	3.473	0.484
154.500	159.378	80.011	19.994	104.315	20.001	3.322	0.521
155.000	159.619	80.011	19.992	104.319	19.999	3.465	0.530
155.499	159.862	80.011	19.993	104.321	20.001	3.338	0.499
155.999	160.119	80.011	19.994	104.320	20.000	3.424	0.492
156.500	160.403	80.010	19.994	104.317	19.996	3.660	0.520
157.000	160.635	80.010	19.993	104.312	20.000	3.385	0.529
157.500	160.924	80.012	19.993	104.306	20.000	3.408	0.519
157.999	161.203	80.008	19.995	104.304	20.001	3.294	0.545
158.499	161.453	80.011	19.994	104.299	20.001	3.343	0.548
158.999	161.687	80.010	19.994	104.297	19.999	3.486	0.506
159.499	161.930	80.010	19.994	104.300	20.000	3.416	0.480
159.999	162.220	80.010	19.995	104.299	19.998	3.506	0.505
160.499	162.448	80.011	19.994	104.297	20.000	3.381	0.526
160.999	162.730	80.011	19.992	104.296	20.000	3.422	0.514
161.499	163.003	80.010	19.994	104.296	20.001	3.334	0.532
162.000	163.237	80.010	19.994	104.293	20.000	3.353	0.531
162.500	163.454	80.010	19.993	104.294	20.001	3.322	0.479
162.999	163.722	80.010	19.993	104.293	20.003	3.192	0.468
163.499	164.007	80.009	19.994	104.294	20.003	3.145	0.519
163.999	164.247	80.009	19.993	104.294	20.004	3.092	0.539
164.500	164.539	80.009	19.994	104.294	20.002	3.273	0.529
165.001	164.794	80.010	19.994	104.293	20.004	3.100	0.539
165.501	165.037	80.010	19.993	104.294	20.001	3.322	0.522
166.000	165.309	80.009	19.994	104.293	20.003	3.202	0.506
166.500	165.581	80.009	19.993	104.293	20.001	3.300	0.530
167.000	165.808	80.008	19.994	104.293	20.003	3.169	0.522
167.500	166.093	80.009	19.993	104.293	20.002	3.216	0.506
168.000	166.333	80.009	19.993	104.293	20.002	3.204	0.518
168.500	166.616	80.010	19.994	104.296	20.002	3.228	0.524
169.000	166.878	80.010	19.993	104.302	20.004	3.110	0.534
169.500	167.091	80.011	19.993	104.305	20.005	3.045	0.510
170.000	167.371	80.010	19.993	104.305	20.007	2.880	0.484
170.500	167.603	80.010	19.992	104.305	20.007	2.837	0.503
170.999	167.864	80.010	19.993	104.303	20.005	3.020	0.502
171.500	168.128	80.010	19.993	104.297	20.010	2.627	0.509
172.000	168.364	80.010	19.992	104.295	20.008	2.817	0.513
172.500	168.601	80.010	19.993	104.295	20.007	2.833	0.486
