Sample ID:	C:\MCC\MCC Cal\Test\Tyvek_Wrap_MCC_30K_min_220210_R2.txt
Sample Weight (mg):	4.69
Heating Rate (C/s):	0.5
Combustor Temp (C):	900
N2 Flow Rate (cc/min):	80
O2 Flow Rate (cc/min):	20
Calibration File:	C:\MCC\MCC Cal\Coeff1 JN10440_30_210304.txt.txt
T Correction Coefficients:	0	1.024463	0
Time Shift (s):	14
*
Time (s)	Temperature (C)	N2 flow rate (cc/min)	O2 flow rate (cc/min)	Flow Rate (cc/min)	Oxygen (%)	HRR (W/g)	Heating rate (C/s)
0.000	113.337	80.006	19.994	103.670	19.961	0.457	0.006
0.500	113.312	80.007	19.997	103.671	19.962	0.382	0.017
1.000	113.282	80.007	19.997	103.671	19.962	0.387	-0.032
1.500	113.297	80.008	19.996	103.659	19.958	0.667	-0.035
2.000	113.312	80.007	19.996	103.629	19.956	0.797	0.007
2.500	113.319	80.007	19.994	103.605	19.955	0.848	0.026
3.000	113.308	80.007	19.995	103.590	19.955	0.830	0.009
3.500	113.317	80.007	19.995	103.577	19.952	1.072	-0.002
4.000	113.307	80.008	19.995	103.580	19.954	0.949	-0.002
4.500	113.286	80.007	19.994	103.603	19.952	1.028	-0.016
5.000	113.307	80.008	19.994	103.622	19.953	0.985	-0.015
5.500	113.296	80.008	19.995	103.638	19.954	0.915	0.005
6.000	113.329	80.008	19.994	103.680	19.950	1.202	0.016
6.500	113.280	80.006	19.994	103.700	19.951	1.115	0.003
7.000	113.297	80.007	19.994	103.708	19.950	1.176	-0.024
7.500	113.267	80.007	19.994	103.709	19.950	1.170	-0.022
8.000	113.244	80.006	19.995	103.703	19.950	1.204	-0.033
8.500	113.281	80.007	19.994	103.669	19.949	1.254	-0.019
9.001	113.288	80.008	19.995	103.654	19.947	1.373	0.029
9.501	113.315	80.007	19.994	103.649	19.946	1.448	0.039
10.000	113.311	80.007	19.995	103.652	19.947	1.388	0.028
10.500	113.309	80.006	19.995	103.658	19.947	1.376	0.008
11.000	113.301	80.007	19.996	103.665	19.947	1.409	-0.008
11.500	113.313	80.008	19.994	103.671	19.944	1.590	-0.003
12.000	113.319	80.008	19.994	103.678	19.946	1.450	0.011
12.500	113.320	80.006	19.995	103.678	19.943	1.699	0.012
13.000	113.324	80.008	19.995	103.677	19.943	1.697	0.006
13.500	113.295	80.009	19.995	103.677	19.940	1.897	-0.010
14.000	113.350	80.008	19.994	103.678	19.941	1.790	0.001
14.500	113.302	80.009	19.994	103.682	19.942	1.782	0.017
15.000	113.349	80.008	19.996	103.681	19.940	1.911	0.003
15.500	113.354	80.008	19.995	103.684	19.939	1.941	0.025
16.000	113.335	80.009	19.995	103.686	19.941	1.825	0.019
16.500	113.349	80.009	19.994	103.690	19.941	1.825	-0.009
17.000	113.407	80.009	19.995	103.694	19.940	1.920	0.034
17.500	113.384	80.010	19.994	103.702	19.940	1.920	0.053
18.000	113.393	80.008	19.994	103.711	19.936	2.141	0.010
18.500	113.454	80.008	19.994	103.721	19.937	2.101	0.028
19.000	113.454	80.010	19.994	103.727	19.937	2.080	0.065
19.500	113.466	80.009	19.995	103.734	19.938	2.028	0.036
20.000	113.440	80.010	19.994	103.740	19.937	2.085	-0.001
20.500	113.490	80.010	19.995	103.742	19.937	2.125	0.005
21.000	113.455	80.009	19.994	103.737	19.937	2.072	0.019
21.500	113.539	80.009	19.994	103.731	19.938	2.023	0.032
22.000	113.557	80.009	19.995	103.727	19.935	2.248	0.076
22.500	113.574	80.009	19.993	103.727	19.935	2.249	0.069
23.000	113.569	80.010	19.993	103.730	19.936	2.185	0.024
23.500	113.552	80.010	19.994	103.714	19.939	1.967	-0.005
24.000	113.614	80.009	19.994	103.701	19.938	2.045	0.011
24.500	113.619	80.008	19.993	103.690	19.939	1.970	0.055
25.000	113.644	80.008	19.994	103.679	19.937	2.065	0.048
25.500	113.690	80.008	19.993	103.670	19.938	2.033	0.051
26.000	113.694	80.008	19.993	103.687	19.942	1.775	0.061
26.500	113.779	80.007	19.994	103.716	19.939	1.965	0.070
27.000	113.785	80.008	19.993	103.759	19.938	1.997	0.090
27.500	113.837	80.009	19.993	103.782	19.940	1.911	0.075
28.000	113.860	80.006	19.992	103.790	19.937	2.072	0.066
28.500	113.853	80.007	19.994	103.791	19.942	1.737	0.045
29.000	113.914	80.008	19.994	103.781	19.941	1.815	0.035
29.500	113.963	80.007	19.995	103.753	19.940	1.858	0.082
30.000	113.944	80.007	19.993	103.732	19.937	2.069	0.070
30.500	114.037	80.007	19.994	103.710	19.939	1.957	0.052
31.000	114.038	80.007	19.993	103.704	19.937	2.063	0.084
31.500	114.062	80.007	19.993	103.709	19.935	2.262	0.059
32.000	114.095	80.008	19.995	103.718	19.940	1.923	0.041
32.500	114.114	80.008	19.995	103.745	19.937	2.127	0.055
33.000	114.134	80.008	19.993	103.815	19.933	2.403	0.045
33.500	114.228	80.009	19.994	103.854	19.932	2.432	0.077
34.000	114.238	80.007	19.995	103.868	19.931	2.484	0.109
34.500	114.282	80.007	19.993	103.874	19.932	2.443	0.079
35.000	114.374	80.008	19.995	103.873	19.933	2.392	0.095
35.500	114.389	80.007	19.993	103.842	19.928	2.721	0.122
36.000	114.420	80.007	19.994	103.832	19.932	2.418	0.077
36.500	114.499	80.006	19.993	103.837	19.929	2.627	0.078
37.000	114.595	80.008	19.993	103.838	19.930	2.564	0.143
37.501	114.597	80.007	19.994	103.839	19.929	2.678	0.137
38.001	114.673	80.007	19.994	103.838	19.928	2.706	0.088
38.500	114.698	80.008	19.995	103.833	19.932	2.464	0.090
39.000	114.779	80.006	19.993	103.827	19.929	2.668	0.103
39.501	114.846	80.006	19.993	103.826	19.930	2.559	0.127
40.001	114.922	80.007	19.993	103.826	19.931	2.532	0.146
40.500	114.967	80.008	19.994	103.833	19.930	2.583	0.132
41.001	115.011	80.008	19.993	103.840	19.930	2.545	0.105
41.501	115.137	80.007	19.995	103.843	19.929	2.640	0.130
42.000	115.164	80.008	19.995	103.845	19.931	2.533	0.161
42.501	115.266	80.008	19.994	103.846	19.931	2.516	0.141
43.001	115.334	80.008	19.995	103.839	19.929	2.637	0.149
43.501	115.371	80.008	19.994	103.831	19.932	2.458	0.138
44.000	115.460	80.007	19.994	103.824	19.932	2.423	0.116
44.500	115.537	80.008	19.993	103.818	19.927	2.768	0.146
45.000	115.616	80.007	19.994	103.810	19.926	2.842	0.161
45.500	115.662	80.007	19.993	103.806	19.930	2.606	0.141
46.000	115.807	80.008	19.994	103.807	19.931	2.500	0.158
46.500	115.845	80.008	19.993	103.810	19.928	2.750	0.186
47.000	115.912	80.008	19.993	103.815	19.932	2.440	0.144
47.500	115.960	80.007	19.995	103.823	19.933	2.349	0.110
48.000	116.056	80.008	19.994	103.826	19.933	2.345	0.129
48.500	116.122	80.007	19.994	103.827	19.930	2.589	0.153
49.000	116.207	80.008	19.994	103.827	19.932	2.455	0.156
49.500	116.321	80.008	19.992	103.827	19.931	2.479	0.175
50.000	116.408	80.006	19.994	103.826	19.933	2.369	0.200
50.500	116.490	80.008	19.993	103.826	19.934	2.330	0.185
51.001	116.579	80.008	19.995	103.826	19.931	2.481	0.170
51.501	116.676	80.007	19.993	103.822	19.935	2.231	0.178
52.000	116.787	80.007	19.993	103.815	19.932	2.445	0.197
52.500	116.847	80.007	19.993	103.811	19.934	2.298	0.190
53.000	116.946	80.009	19.994	103.805	19.934	2.296	0.166
53.500	117.058	80.006	19.994	103.798	19.933	2.398	0.185
54.000	117.117	80.008	19.994	103.795	19.935	2.239	0.191
54.500	117.199	80.008	19.994	103.796	19.934	2.326	0.156
55.000	117.343	80.007	19.994	103.793	19.936	2.137	0.184
55.500	117.430	80.007	19.994	103.800	19.936	2.142	0.228
56.000	117.483	80.006	19.994	103.808	19.934	2.337	0.185
56.500	117.606	80.008	19.992	103.820	19.934	2.322	0.158
57.000	117.675	80.007	19.994	103.834	19.937	2.110	0.184
57.500	117.789	80.007	19.993	103.842	19.936	2.193	0.188
58.000	117.873	80.007	19.992	103.842	19.937	2.099	0.190
58.500	117.985	80.007	19.994	103.842	19.936	2.199	0.197
59.000	118.046	80.009	19.996	103.836	19.935	2.241	0.185
59.500	118.134	80.008	19.995	103.830	19.934	2.303	0.161
60.001	118.236	80.008	19.996	103.828	19.931	2.478	0.169
60.501	118.335	80.006	19.995	103.828	19.933	2.379	0.196
61.001	118.446	80.006	19.993	103.828	19.933	2.374	0.205
61.500	118.533	80.008	19.993	103.828	19.933	2.353	0.204
62.000	118.677	80.007	19.992	103.829	19.936	2.173	0.215
62.500	118.746	80.007	19.995	103.836	19.934	2.327	0.222
63.000	118.807	80.008	19.995	103.837	19.932	2.422	0.171
63.500	118.934	80.006	19.994	103.837	19.934	2.287	0.159
64.000	119.077	80.006	19.994	103.837	19.934	2.316	0.229
64.501	119.101	80.007	19.994	103.836	19.934	2.325	0.218
65.001	119.216	80.008	19.994	103.830	19.933	2.359	0.153
65.500	119.370	80.006	19.993	103.832	19.932	2.446	0.204
66.000	119.432	80.006	19.993	103.834	19.929	2.647	0.242
66.500	119.552	80.009	19.994	103.835	19.931	2.503	0.199
67.000	119.612	80.008	19.993	103.836	19.929	2.647	0.181
67.500	119.734	80.008	19.994	103.835	19.934	2.304	0.181
68.000	119.873	80.009	19.993	103.834	19.930	2.550	0.222
68.500	119.941	80.007	19.994	103.832	19.928	2.703	0.234
69.001	120.050	80.007	19.992	103.831	19.928	2.726	0.192
69.501	120.178	80.008	19.993	103.831	19.929	2.661	0.207
70.001	120.258	80.009	19.994	103.833	19.931	2.529	0.223
70.501	120.388	80.009	19.993	103.840	19.926	2.887	0.209
71.001	120.531	80.008	19.993	103.848	19.929	2.654	0.241
71.500	120.608	80.009	19.993	103.856	19.929	2.669	0.246
72.000	120.751	80.008	19.993	103.863	19.928	2.702	0.220
72.500	120.859	80.009	19.994	103.869	19.927	2.777	0.236
73.000	120.981	80.008	19.994	103.869	19.929	2.634	0.240
73.500	121.101	80.008	19.993	103.871	19.930	2.549	0.236
74.000	121.186	80.008	19.993	103.874	19.930	2.548	0.224
74.500	121.324	80.009	19.992	103.880	19.928	2.740	0.214
75.000	121.444	80.009	19.993	103.880	19.928	2.692	0.240
75.500	121.556	80.007	19.993	103.879	19.927	2.772	0.245
76.000	121.712	80.009	19.994	103.877	19.927	2.814	0.250
76.500	121.835	80.008	19.993	103.874	19.929	2.638	0.274
77.000	121.944	80.008	19.994	103.870	19.927	2.778	0.256
77.500	122.094	80.009	19.995	103.869	19.926	2.879	0.245
78.000	122.221	80.008	19.992	103.866	19.925	2.922	0.267
78.500	122.330	80.008	19.993	103.858	19.926	2.837	0.256
79.000	122.495	80.008	19.995	103.853	19.925	2.930	0.255
79.500	122.561	80.008	19.994	103.852	19.925	2.952	0.253
80.000	122.725	80.010	19.994	103.851	19.925	2.941	0.231
80.500	122.826	80.007	19.995	103.854	19.923	3.070	0.248
81.000	123.005	80.007	19.994	103.862	19.927	2.774	0.272
81.500	123.128	80.008	19.995	103.865	19.926	2.825	0.291
82.000	123.259	80.008	19.994	103.867	19.928	2.702	0.278
82.500	123.420	80.009	19.994	103.872	19.925	2.947	0.274
83.000	123.510	80.008	19.994	103.875	19.926	2.852	0.272
83.500	123.702	80.008	19.992	103.876	19.923	3.060	0.267
84.000	123.838	80.007	19.995	103.877	19.924	2.987	0.305
84.500	123.934	80.008	19.994	103.880	19.926	2.879	0.280
85.000	124.089	80.009	19.994	103.879	19.929	2.661	0.241
85.501	124.220	80.008	19.994	103.882	19.928	2.754	0.269
86.001	124.380	80.010	19.993	103.884	19.923	3.038	0.289
86.500	124.544	80.009	19.995	103.889	19.923	3.038	0.307
87.001	124.660	80.008	19.994	103.890	19.926	2.848	0.302
87.501	124.832	80.007	19.993	103.894	19.924	2.968	0.284
88.000	124.955	80.007	19.994	103.897	19.925	2.915	0.291
88.500	125.134	80.008	19.993	103.902	19.926	2.852	0.298
89.000	125.245	80.009	19.995	103.904	19.924	2.985	0.296
89.500	125.421	80.009	19.994	103.906	19.927	2.799	0.289
90.000	125.543	80.009	19.994	103.907	19.925	2.894	0.292
90.500	125.714	80.007	19.995	103.903	19.924	3.008	0.295
91.000	125.831	80.009	19.995	103.901	19.924	2.994	0.291
91.500	126.030	80.009	19.994	103.900	19.923	3.066	0.302
92.000	126.176	80.009	19.994	103.900	19.920	3.250	0.330
92.500	126.335	80.009	19.994	103.900	19.921	3.179	0.325
93.000	126.474	80.010	19.994	103.902	19.920	3.297	0.302
93.500	126.650	80.009	19.994	103.903	19.922	3.157	0.307
94.001	126.830	80.009	19.994	103.902	19.923	3.070	0.336
94.501	126.936	80.010	19.993	103.904	19.921	3.208	0.320
95.000	127.142	80.008	19.994	103.905	19.921	3.208	0.299
95.500	127.296	80.008	19.994	103.906	19.923	3.083	0.336
96.000	127.445	80.009	19.993	103.906	19.925	2.943	0.332
96.501	127.623	80.008	19.994	103.905	19.921	3.225	0.315
97.001	127.769	80.009	19.993	103.902	19.919	3.331	0.326
97.500	127.951	80.010	19.993	103.902	19.922	3.157	0.326
98.000	128.134	80.010	19.994	103.900	19.922	3.102	0.346
98.501	128.322	80.009	19.994	103.901	19.925	2.949	0.368
99.001	128.498	80.010	19.994	103.901	19.923	3.048	0.367
99.500	128.640	80.010	19.995	103.908	19.922	3.108	0.341
100.000	128.796	80.008	19.994	103.910	19.921	3.217	0.308
100.500	128.982	80.009	19.993	103.910	19.921	3.177	0.320
101.000	129.173	80.010	19.993	103.914	19.922	3.104	0.359
101.500	129.344	80.011	19.994	103.913	19.921	3.222	0.370
102.000	129.530	80.010	19.994	103.904	19.922	3.146	0.359
102.500	129.711	80.010	19.994	103.901	19.923	3.032	0.362
103.000	129.856	80.009	19.995	103.900	19.921	3.170	0.347
103.500	130.094	80.010	19.995	103.896	19.921	3.231	0.354
104.000	130.239	80.009	19.994	103.897	19.921	3.231	0.383
104.500	130.408	80.009	19.994	103.899	19.919	3.330	0.348
105.000	130.626	80.008	19.995	103.900	19.921	3.209	0.350
105.500	130.795	80.009	19.995	103.901	19.919	3.309	0.387
106.000	130.963	80.008	19.995	103.900	19.920	3.243	0.362
106.500	131.169	80.007	19.994	103.900	19.920	3.264	0.356
107.000	131.352	80.008	19.994	103.899	19.922	3.163	0.381
107.500	131.555	80.007	19.994	103.898	19.920	3.288	0.387
108.000	131.785	80.007	19.997	103.899	19.920	3.303	0.410
108.501	131.948	80.008	19.996	103.903	19.922	3.131	0.413
109.001	132.156	80.007	19.995	103.910	19.923	3.070	0.382
109.500	132.377	80.008	19.995	103.918	19.919	3.366	0.400
110.000	132.539	80.007	19.995	103.924	19.920	3.286	0.406
110.500	132.762	80.007	19.995	103.927	19.921	3.203	0.384
111.000	132.955	80.008	19.996	103.931	19.921	3.180	0.400
111.500	133.124	80.006	19.994	103.928	19.922	3.161	0.389
112.000	133.318	80.007	19.994	103.921	19.920	3.241	0.363
112.500	133.500	80.007	19.995	103.916	19.921	3.216	0.370
113.000	133.735	80.007	19.994	103.912	19.918	3.424	0.396
113.500	133.921	80.008	19.994	103.910	19.920	3.305	0.419
114.000	134.156	80.007	19.995	103.907	19.917	3.477	0.421
114.500	134.341	80.007	19.994	103.910	19.917	3.462	0.421
115.000	134.551	80.008	19.995	103.912	19.921	3.188	0.408
115.500	134.743	80.008	19.994	103.919	19.920	3.291	0.398
116.000	134.956	80.008	19.993	103.922	19.922	3.129	0.404
116.500	135.144	80.006	19.995	103.929	19.921	3.186	0.403
117.000	135.411	80.008	19.994	103.930	19.926	2.883	0.428
117.500	135.561	80.007	19.994	103.929	19.923	3.078	0.436
118.000	135.788	80.007	19.994	103.924	19.923	3.062	0.397
118.500	135.984	80.008	19.993	103.918	19.922	3.112	0.400
119.000	136.186	80.007	19.996	103.913	19.923	3.074	0.410
119.500	136.375	80.008	19.995	103.912	19.920	3.250	0.395
120.000	136.583	80.006	19.994	103.912	19.919	3.337	0.394
120.500	136.799	80.009	19.993	103.910	19.923	3.081	0.411
121.000	137.017	80.006	19.993	103.911	19.923	3.087	0.429
121.500	137.212	80.008	19.994	103.909	19.922	3.125	0.423
122.000	137.418	80.008	19.994	103.909	19.921	3.195	0.407
122.500	137.656	80.008	19.994	103.911	19.922	3.110	0.422
123.001	137.830	80.009	19.993	103.911	19.922	3.157	0.428
123.501	138.069	80.007	19.994	103.910	19.924	3.006	0.413
124.000	138.303	80.008	19.993	103.910	19.925	2.945	0.443
124.500	138.484	80.008	19.993	103.911	19.923	3.034	0.444
125.001	138.729	80.008	19.993	103.915	19.922	3.101	0.420
125.501	138.944	80.008	19.994	103.921	19.925	2.942	0.443
126.000	139.167	80.008	19.994	103.929	19.924	3.010	0.449
126.500	139.363	80.009	19.994	103.935	19.924	3.021	0.428
127.000	139.555	80.008	19.994	103.933	19.924	2.985	0.403
127.500	139.804	80.009	19.993	103.927	19.923	3.050	0.415
128.000	140.002	80.007	19.993	103.920	19.924	3.025	0.444
128.500	140.239	80.007	19.994	103.912	19.926	2.854	0.441
129.000	140.437	80.008	19.994	103.907	19.924	3.010	0.435
129.500	140.701	80.008	19.993	103.906	19.925	2.917	0.448
130.000	140.906	80.007	19.993	103.905	19.923	3.064	0.466
130.500	141.162	80.007	19.992	103.905	19.927	2.767	0.465
131.000	141.336	80.009	19.994	103.905	19.923	3.072	0.445
131.501	141.554	80.008	19.994	103.904	19.923	3.044	0.411
132.000	141.783	80.007	19.994	103.905	19.923	3.048	0.419
132.500	142.009	80.009	19.994	103.912	19.926	2.870	0.450
133.001	142.228	80.007	19.993	103.916	19.927	2.756	0.450
133.500	142.438	80.007	19.993	103.917	19.925	2.961	0.437
134.000	142.664	80.008	19.994	103.918	19.925	2.915	0.433
134.500	142.916	80.007	19.993	103.920	19.924	2.968	0.457
135.000	143.119	80.008	19.994	103.919	19.925	2.955	0.466
135.500	143.380	80.007	19.994	103.920	19.924	3.004	0.459
136.000	143.649	80.008	19.993	103.921	19.929	2.644	0.497
136.500	143.840	80.008	19.993	103.920	19.928	2.693	0.495
137.000	144.068	80.006	19.994	103.922	19.927	2.803	0.440
137.500	144.285	80.007	19.993	103.921	19.927	2.820	0.432
138.000	144.500	80.007	19.992	103.920	19.926	2.871	0.439
138.500	144.784	80.007	19.993	103.921	19.924	3.004	0.466
139.000	144.993	80.005	19.994	103.923	19.924	2.974	0.496
139.500	145.229	80.007	19.994	103.918	19.924	2.979	0.469
140.000	145.451	80.007	19.993	103.914	19.925	2.949	0.451
140.500	145.695	80.007	19.993	103.911	19.924	2.989	0.462
141.000	145.910	80.007	19.993	103.909	19.922	3.133	0.463
141.500	146.196	80.008	19.993	103.909	19.924	3.012	0.480
142.000	146.392	80.007	19.994	103.914	19.923	3.035	0.491
142.500	146.586	80.007	19.993	103.919	19.925	2.946	0.435
143.000	146.878	80.007	19.993	103.922	19.925	2.916	0.438
143.500	147.084	80.007	19.994	103.922	19.928	2.745	0.493
144.000	147.328	80.008	19.993	103.924	19.923	3.080	0.474
144.500	147.543	80.008	19.993	103.923	19.926	2.873	0.454
145.000	147.755	80.008	19.993	103.919	19.925	2.928	0.443
145.500	147.990	80.009	19.994	103.914	19.927	2.809	0.437
146.000	148.213	80.007	19.994	103.911	19.924	2.994	0.453
146.500	148.485	80.008	19.993	103.907	19.923	3.099	0.477
147.000	148.680	80.008	19.993	103.903	19.923	3.074	0.481
147.500	148.939	80.008	19.993	103.904	19.923	3.083	0.460
148.000	149.160	80.008	19.993	103.909	19.921	3.191	0.467
148.500	149.405	80.009	19.994	103.915	19.921	3.206	0.473
149.000	149.645	80.008	19.993	103.916	19.925	2.960	0.475
149.500	149.886	80.008	19.994	103.916	19.921	3.212	0.483
150.000	150.127	80.009	19.993	103.916	19.920	3.263	0.482
150.500	150.406	80.009	19.993	103.916	19.920	3.293	0.501
151.000	150.646	80.010	19.992	103.916	19.924	3.004	0.519
151.500	150.821	80.009	19.994	103.923	19.922	3.146	0.466
152.000	151.076	80.008	19.994	103.929	19.921	3.172	0.422
152.500	151.334	80.010	19.993	103.934	19.925	2.916	0.472
153.000	151.549	80.009	19.993	103.937	19.923	3.076	0.493
153.500	151.765	80.010	19.993	103.940	19.921	3.187	0.452
154.000	152.034	80.011	19.993	103.937	19.921	3.204	0.458
154.500	152.238	80.009	19.993	103.931	19.925	2.947	0.479
155.000	152.485	80.010	19.993	103.924	19.922	3.115	0.462
155.500	152.745	80.010	19.993	103.919	19.924	3.013	0.479
156.000	152.961	80.009	19.993	103.915	19.922	3.121	0.491
156.500	153.235	80.009	19.993	103.914	19.923	3.095	0.483
157.000	153.449	80.008	19.993	103.916	19.923	3.095	0.489
157.500	153.678	80.009	19.992	103.915	19.926	2.890	0.465
158.000	153.951	80.007	19.992	103.912	19.923	3.063	0.473
158.500	154.196	80.010	19.993	103.909	19.925	2.932	0.510
159.000	154.407	80.008	19.993	103.905	19.927	2.816	0.487
159.500	154.658	80.010	19.993	103.903	19.922	3.104	0.459
160.000	154.849	80.008	19.993	103.905	19.927	2.776	0.452
160.500	155.098	80.009	19.993	103.906	19.925	2.916	0.441
161.000	155.339	80.009	19.994	103.906	19.926	2.867	0.465
161.500	155.589	80.008	19.992	103.906	19.927	2.797	0.490
162.000	155.819	80.008	19.993	103.906	19.925	2.932	0.485
162.500	156.056	80.009	19.995	103.905	19.928	2.727	0.474
163.000	156.313	80.008	19.994	103.903	19.925	2.954	0.481
163.500	156.549	80.007	19.994	103.903	19.925	2.920	0.494
164.000	156.776	80.005	19.992	103.902	19.925	2.896	0.478
164.500	157.006	80.008	19.993	103.902	19.924	3.011	0.460
165.000	157.279	80.006	19.993	103.902	19.924	2.990	0.480
165.500	157.529	80.008	19.994	103.903	19.927	2.793	0.513
166.000	157.766	80.008	19.994	103.903	19.926	2.880	0.505
166.500	158.032	80.008	19.994	103.903	19.925	2.926	0.495
167.000	158.261	80.008	19.994	103.906	19.928	2.746	0.499
167.500	158.496	80.008	19.994	103.909	19.927	2.793	0.480
168.000	158.777	80.008	19.994	103.913	19.928	2.736	0.490
168.500	159.036	80.008	19.993	103.916	19.925	2.914	0.528
169.000	159.244	80.007	19.995	103.917	19.927	2.791	0.504
169.500	159.467	80.007	19.994	103.913	19.927	2.763	0.449
170.000	159.737	80.007	19.993	103.911	19.924	3.004	0.462
170.500	160.004	80.009	19.993	103.907	19.928	2.712	0.515
171.000	160.240	80.008	19.993	103.903	19.926	2.829	0.520
171.500	160.476	80.008	19.994	103.902	19.927	2.789	0.487
172.000	160.702	80.008	19.994	103.902	19.926	2.858	0.467
172.500	160.965	80.009	19.993	103.900	19.928	2.725	0.476
