Sample ID:	C:\MCC\MCC Cal\Test\LW_GypBoard_Gypsum_Core_MCC_30K_min_211130_R3.txt
Sample Weight (mg):	4.91
Heating Rate (C/s):	0.5
Combustor Temp (C):	900
N2 Flow Rate (cc/min):	80
O2 Flow Rate (cc/min):	20
Calibration File:	C:\MCC\MCC Cal\Coeff1 JN10440_30_210304.txt.txt
T Correction Coefficients:	0	1.024463	0
Time Shift (s):	14
*
Time (s)	Temperature (C)	N2 flow rate (cc/min)	O2 flow rate (cc/min)	Flow Rate (cc/min)	Oxygen (%)	HRR (W/g)	Heating rate (C/s)
0.000	109.036	80.006	19.994	103.108	19.946	-0.083	-0.025
0.500	109.045	80.006	19.994	103.109	19.943	0.142	-0.030
1.000	109.027	80.005	19.994	103.108	19.943	0.117	-0.012
1.500	109.054	80.006	19.994	103.106	19.944	0.032	0.000
2.000	109.083	80.006	19.994	103.106	19.942	0.164	0.032
2.500	109.083	80.006	19.994	103.104	19.943	0.117	0.043
3.000	109.068	80.005	19.993	103.103	19.943	0.101	0.007
3.500	109.040	80.005	19.994	103.103	19.942	0.201	-0.029
4.000	109.056	80.004	19.994	103.103	19.941	0.235	-0.027
4.500	109.063	80.006	19.994	103.103	19.941	0.234	0.006
5.000	109.001	80.007	19.995	103.104	19.941	0.228	-0.016
5.500	109.023	80.006	19.995	103.106	19.941	0.239	-0.047
6.000	109.016	80.007	19.995	103.105	19.943	0.079	-0.013
6.500	109.051	80.006	19.994	103.108	19.942	0.191	0.021
7.000	109.044	80.006	19.995	103.109	19.942	0.147	0.028
7.500	109.032	80.006	19.994	103.107	19.944	0.061	0.005
8.001	109.019	80.007	19.994	103.105	19.944	0.023	-0.022
8.501	109.017	80.006	19.996	103.104	19.940	0.327	-0.020
9.001	109.040	80.006	19.994	103.103	19.942	0.187	0.003
9.501	109.024	80.006	19.995	103.103	19.941	0.255	0.014
10.001	109.015	80.006	19.995	103.103	19.941	0.261	-0.009
10.500	109.016	80.006	19.995	103.106	19.939	0.370	-0.017
11.000	109.033	80.006	19.996	103.110	19.940	0.329	0.005
11.500	109.034	80.006	19.995	103.112	19.941	0.270	0.018
12.000	109.004	80.007	19.995	103.115	19.940	0.299	-0.006
12.500	109.022	80.007	19.995	103.121	19.943	0.138	-0.020
13.000	109.034	80.007	19.995	103.123	19.942	0.196	0.009
13.500	109.008	80.005	19.994	103.120	19.946	-0.115	0.008
14.000	109.004	80.007	19.995	103.117	19.939	0.372	-0.022
14.500	109.011	80.006	19.995	103.116	19.941	0.257	-0.013
15.000	109.030	80.006	19.995	103.115	19.943	0.137	0.015
15.500	109.002	80.008	19.994	103.112	19.941	0.227	0.009
16.000	108.994	80.008	19.995	103.117	19.944	0.052	-0.022
16.500	109.013	80.007	19.995	103.122	19.944	0.043	-0.013
17.000	108.982	80.008	19.995	103.126	19.940	0.299	-0.001
17.500	109.013	80.008	19.995	103.128	19.941	0.238	-0.006
18.000	109.000	80.008	19.994	103.134	19.942	0.194	0.009
18.500	109.013	80.008	19.994	103.134	19.941	0.211	0.009
19.001	109.021	80.009	19.994	103.135	19.943	0.115	0.011
19.501	109.051	80.007	19.995	103.140	19.941	0.225	0.030
20.000	109.038	80.007	19.994	103.145	19.940	0.302	0.027
20.500	109.054	80.008	19.994	103.152	19.937	0.520	0.010
21.000	109.032	80.009	19.994	103.157	19.931	0.871	-0.001
21.500	109.062	80.009	19.995	103.164	19.936	0.594	0.001
22.001	109.057	80.008	19.995	103.168	19.938	0.466	0.016
22.500	109.062	80.008	19.993	103.171	19.937	0.472	0.013
23.000	109.042	80.009	19.994	103.171	19.938	0.419	-0.007
23.500	109.063	80.007	19.995	103.178	19.935	0.636	-0.007
24.000	109.108	80.008	19.995	103.185	19.928	1.118	0.033
24.500	109.119	80.008	19.995	103.189	19.930	0.945	0.061
25.001	109.102	80.008	19.994	103.197	19.935	0.664	0.025
25.501	109.157	80.008	19.994	103.209	19.928	1.120	0.016
26.001	109.163	80.008	19.995	103.221	19.929	1.059	0.049
26.501	109.172	80.008	19.994	103.230	19.926	1.210	0.038
27.000	109.185	80.008	19.995	103.240	19.924	1.377	0.019
27.500	109.235	80.010	19.995	103.247	19.924	1.374	0.043
28.000	109.273	80.007	19.993	103.251	19.921	1.552	0.076
28.500	109.275	80.008	19.994	103.251	19.922	1.503	0.064
29.000	109.311	80.007	19.994	103.253	19.924	1.386	0.039
29.500	109.380	80.008	19.994	103.261	19.918	1.770	0.071
30.000	109.377	80.007	19.995	103.269	19.918	1.752	0.086
30.500	109.470	80.008	19.995	103.272	19.916	1.905	0.078
31.000	109.480	80.007	19.995	103.280	19.916	1.910	0.096
31.500	109.495	80.006	19.995	103.284	19.915	1.962	0.064
32.000	109.526	80.007	19.994	103.284	19.915	1.971	0.036
32.500	109.589	80.008	19.995	103.284	19.913	2.101	0.070
33.000	109.652	80.008	19.996	103.287	19.916	1.862	0.110
33.500	109.704	80.006	19.996	103.286	19.920	1.635	0.120
34.000	109.741	80.008	19.996	103.287	19.914	2.013	0.103
34.500	109.764	80.006	19.994	103.286	19.910	2.269	0.075
35.000	109.836	80.005	19.995	103.286	19.913	2.078	0.078
35.500	109.869	80.006	19.996	103.286	19.910	2.305	0.100
36.000	109.943	80.007	19.996	103.285	19.910	2.299	0.106
36.500	110.010	80.007	19.995	103.284	19.913	2.094	0.124
37.000	110.054	80.007	19.996	103.284	19.913	2.089	0.126
37.500	110.141	80.007	19.996	103.286	19.911	2.217	0.121
38.000	110.191	80.006	19.995	103.287	19.913	2.080	0.134
38.501	110.247	80.007	19.996	103.290	19.912	2.163	0.121
39.001	110.328	80.008	19.995	103.292	19.908	2.433	0.122
39.500	110.391	80.007	19.995	103.292	19.911	2.183	0.141
40.000	110.450	80.007	19.995	103.290	19.911	2.224	0.133
40.501	110.504	80.007	19.996	103.290	19.913	2.111	0.117
41.001	110.582	80.005	19.995	103.289	19.912	2.114	0.123
41.501	110.648	80.006	19.994	103.288	19.912	2.177	0.138
42.000	110.692	80.008	19.994	103.288	19.912	2.138	0.127
42.500	110.801	80.007	19.995	103.287	19.911	2.213	0.132
43.000	110.877	80.010	19.995	103.286	19.913	2.058	0.169
43.501	110.941	80.008	19.996	103.288	19.914	2.006	0.162
44.001	111.026	80.008	19.994	103.288	19.909	2.347	0.144
44.500	111.096	80.010	19.995	103.289	19.912	2.169	0.152
45.000	111.189	80.009	19.995	103.290	19.910	2.296	0.159
45.500	111.258	80.009	19.995	103.291	19.911	2.224	0.162
46.000	111.324	80.009	19.995	103.291	19.910	2.250	0.149
46.501	111.445	80.008	19.994	103.291	19.908	2.376	0.161
47.001	111.544	80.010	19.994	103.294	19.908	2.387	0.203
47.500	111.661	80.009	19.995	103.299	19.910	2.305	0.218
48.000	111.692	80.009	19.994	103.306	19.911	2.239	0.182
48.500	111.779	80.007	19.993	103.310	19.906	2.541	0.134
49.001	111.898	80.008	19.994	103.317	19.909	2.320	0.162
49.501	112.002	80.009	19.993	103.321	19.910	2.260	0.214
50.001	112.103	80.009	19.993	103.322	19.909	2.349	0.214
50.500	112.205	80.008	19.993	103.322	19.905	2.603	0.205
51.000	112.275	80.008	19.994	103.323	19.908	2.419	0.188
51.500	112.362	80.009	19.993	103.320	19.903	2.734	0.164
52.000	112.493	80.009	19.993	103.316	19.910	2.273	0.187
52.500	112.585	80.009	19.995	103.313	19.904	2.697	0.220
53.000	112.671	80.008	19.993	103.314	19.908	2.435	0.201
53.500	112.781	80.008	19.994	103.316	19.904	2.648	0.187
54.001	112.916	80.007	19.994	103.321	19.904	2.677	0.221
54.501	113.028	80.007	19.993	103.324	19.902	2.803	0.246
55.000	113.164	80.006	19.993	103.330	19.902	2.783	0.247
55.500	113.278	80.007	19.993	103.330	19.901	2.844	0.249
56.000	113.368	80.007	19.995	103.331	19.907	2.470	0.227
56.501	113.507	80.007	19.994	103.332	19.907	2.463	0.217
57.001	113.595	80.007	19.995	103.333	19.905	2.603	0.228
57.500	113.748	80.007	19.995	103.333	19.899	2.971	0.234
58.001	113.829	80.007	19.994	103.333	19.904	2.668	0.237
58.501	113.921	80.008	19.995	103.333	19.906	2.562	0.203
59.000	114.078	80.007	19.995	103.333	19.904	2.665	0.211
59.500	114.228	80.005	19.994	103.333	19.903	2.726	0.278
60.000	114.333	80.007	19.994	103.332	19.903	2.742	0.281
60.500	114.452	80.005	19.993	103.332	19.900	2.940	0.240
61.000	114.582	80.008	19.993	103.332	19.905	2.603	0.236
61.500	114.710	80.007	19.994	103.335	19.900	2.911	0.253
62.000	114.835	80.007	19.995	103.338	19.904	2.677	0.256
62.501	114.971	80.006	19.993	103.340	19.904	2.664	0.257
63.001	115.100	80.007	19.993	103.341	19.900	2.918	0.263
63.501	115.239	80.008	19.995	103.343	19.901	2.855	0.267
64.000	115.339	80.006	19.994	103.342	19.900	2.960	0.254
64.500	115.501	80.006	19.994	103.343	19.898	3.088	0.250
65.000	115.599	80.006	19.994	103.348	19.901	2.900	0.261
65.501	115.735	80.006	19.993	103.352	19.901	2.861	0.247
66.001	115.896	80.006	19.995	103.349	19.901	2.861	0.265
66.500	116.035	80.006	19.994	103.349	19.900	2.963	0.298
67.001	116.158	80.007	19.994	103.351	19.901	2.863	0.281
67.501	116.322	80.007	19.994	103.351	19.902	2.832	0.275
68.001	116.440	80.007	19.993	103.352	19.899	2.991	0.285
68.501	116.589	80.007	19.994	103.360	19.897	3.162	0.275
69.000	116.735	80.006	19.994	103.365	19.898	3.097	0.281
69.501	116.892	80.007	19.994	103.363	19.898	3.074	0.298
70.001	117.065	80.006	19.995	103.358	19.899	3.011	0.316
70.500	117.178	80.007	19.994	103.359	19.900	2.957	0.308
71.000	117.353	80.007	19.994	103.358	19.896	3.173	0.287
71.500	117.507	80.006	19.993	103.356	19.896	3.207	0.309
72.001	117.638	80.006	19.994	103.354	19.898	3.085	0.307
72.501	117.784	80.006	19.994	103.354	19.894	3.313	0.281
73.001	117.933	80.007	19.995	103.350	19.894	3.295	0.286
73.500	118.130	80.006	19.994	103.347	19.895	3.293	0.320
74.000	118.285	80.006	19.994	103.345	19.895	3.268	0.349
74.501	118.435	80.007	19.994	103.348	19.898	3.050	0.329
75.001	118.560	80.008	19.994	103.352	19.896	3.221	0.290
75.501	118.746	80.008	19.994	103.353	19.900	2.938	0.293
76.001	118.926	80.006	19.994	103.352	19.896	3.221	0.339
76.500	119.041	80.006	19.994	103.352	19.896	3.169	0.331
77.000	119.218	80.007	19.995	103.354	19.900	2.962	0.293
77.500	119.410	80.008	19.994	103.354	19.895	3.240	0.331
78.000	119.550	80.009	19.993	103.354	19.893	3.413	0.351
78.500	119.748	80.007	19.994	103.356	19.892	3.481	0.335
79.000	119.875	80.007	19.994	103.358	19.889	3.663	0.332
79.500	120.062	80.007	19.994	103.359	19.895	3.263	0.319
80.000	120.235	80.008	19.995	103.357	19.894	3.310	0.337
80.500	120.412	80.007	19.993	103.361	19.893	3.384	0.355
81.001	120.564	80.007	19.994	103.362	19.894	3.360	0.339
81.501	120.782	80.007	19.994	103.365	19.893	3.395	0.349
82.001	120.952	80.007	19.994	103.363	19.893	3.369	0.379
82.501	121.117	80.007	19.994	103.365	19.893	3.367	0.362
83.000	121.260	80.007	19.995	103.365	19.893	3.414	0.322
83.500	121.445	80.008	19.995	103.364	19.896	3.168	0.318
84.000	121.661	80.006	19.994	103.363	19.895	3.238	0.364
84.500	121.835	80.008	19.994	103.364	19.894	3.299	0.395
85.000	122.023	80.008	19.994	103.362	19.899	2.986	0.376
85.500	122.193	80.008	19.995	103.359	19.895	3.258	0.360
86.000	122.368	80.009	19.994	103.359	19.894	3.308	0.352
86.500	122.561	80.006	19.994	103.360	19.897	3.115	0.356
87.000	122.714	80.007	19.994	103.361	19.897	3.135	0.357
87.500	122.943	80.005	19.994	103.363	19.897	3.139	0.364
88.001	123.128	80.007	19.994	103.367	19.896	3.191	0.398
88.501	123.326	80.007	19.994	103.369	19.899	2.976	0.399
89.001	123.495	80.005	19.994	103.369	19.900	2.962	0.375
89.500	123.710	80.006	19.994	103.370	19.897	3.155	0.376
90.000	123.895	80.008	19.994	103.371	19.896	3.171	0.392
90.500	124.111	80.006	19.994	103.371	19.898	3.054	0.400
91.000	124.270	80.006	19.993	103.371	19.898	3.063	0.388
91.500	124.465	80.005	19.993	103.370	19.897	3.158	0.364
92.001	124.616	80.005	19.993	103.370	19.897	3.151	0.350
92.501	124.845	80.007	19.994	103.369	19.897	3.140	0.363
93.001	125.061	80.006	19.994	103.369	19.900	2.962	0.413
93.500	125.260	80.006	19.994	103.368	19.896	3.189	0.430
94.000	125.414	80.007	19.994	103.370	19.899	3.022	0.383
94.500	125.635	80.006	19.994	103.377	19.895	3.254	0.364
95.000	125.823	80.007	19.994	103.380	19.897	3.137	0.392
95.500	126.004	80.005	19.995	103.380	19.896	3.220	0.389
96.001	126.241	80.005	19.995	103.380	19.899	3.007	0.394
96.501	126.435	80.006	19.994	103.380	19.897	3.113	0.425
97.000	126.617	80.007	19.995	103.373	19.900	2.960	0.403
97.501	126.859	80.008	19.995	103.371	19.898	3.058	0.400
98.001	127.041	80.008	19.994	103.369	19.899	3.032	0.424
98.500	127.211	80.007	19.995	103.367	19.899	3.011	0.388
99.000	127.496	80.009	19.995	103.364	19.898	3.090	0.404
99.501	127.659	80.007	19.993	103.360	19.899	3.005	0.451
100.001	127.863	80.008	19.995	103.360	19.898	3.034	0.407
100.500	128.093	80.008	19.995	103.361	19.899	2.986	0.401
101.000	128.298	80.009	19.995	103.363	19.898	3.083	0.435
101.500	128.502	80.010	19.994	103.365	19.895	3.236	0.423
102.000	128.727	80.009	19.995	103.368	19.899	3.005	0.419
102.500	128.943	80.009	19.995	103.367	19.898	3.041	0.435
103.000	129.166	80.008	19.995	103.367	19.898	3.081	0.440
103.501	129.378	80.009	19.994	103.367	19.897	3.121	0.437
104.001	129.577	80.010	19.995	103.367	19.902	2.787	0.423
104.500	129.784	80.008	19.995	103.368	19.898	3.063	0.408
105.000	129.998	80.009	19.994	103.369	19.897	3.160	0.413
105.500	130.203	80.008	19.995	103.369	19.898	3.079	0.420
106.000	130.428	80.007	19.996	103.369	19.900	2.915	0.424
106.500	130.649	80.009	19.995	103.369	19.899	3.029	0.438
107.000	130.867	80.009	19.994	103.368	19.901	2.865	0.443
107.501	131.053	80.008	19.994	103.366	19.898	3.072	0.421
108.001	131.287	80.008	19.996	103.366	19.901	2.894	0.412
108.500	131.498	80.008	19.995	103.366	19.896	3.184	0.432
109.000	131.713	80.007	19.995	103.366	19.897	3.101	0.435
109.500	131.997	80.009	19.995	103.367	19.899	3.004	0.463
110.001	132.163	80.008	19.995	103.368	19.897	3.108	0.475
110.501	132.398	80.007	19.994	103.369	19.894	3.330	0.425
111.000	132.608	80.008	19.994	103.369	19.898	3.045	0.423
111.501	132.820	80.007	19.995	103.368	19.901	2.887	0.433
112.001	133.024	80.008	19.994	103.369	19.896	3.168	0.419
112.501	133.260	80.007	19.994	103.369	19.901	2.874	0.428
113.000	133.508	80.008	19.994	103.369	19.897	3.146	0.462
113.500	133.696	80.008	19.995	103.369	19.897	3.160	0.461
114.001	133.966	80.006	19.994	103.369	19.898	3.036	0.447
114.501	134.157	80.008	19.993	103.369	19.897	3.139	0.459
115.000	134.413	80.006	19.993	103.369	19.900	2.948	0.454
115.501	134.587	80.007	19.994	103.369	19.896	3.204	0.439
116.001	134.850	80.007	19.994	103.371	19.899	3.022	0.434
116.500	135.069	80.008	19.995	103.372	19.896	3.186	0.460
117.000	135.276	80.008	19.994	103.372	19.897	3.106	0.454
117.500	135.500	80.008	19.995	103.371	19.898	3.045	0.428
118.000	135.738	80.008	19.995	103.372	19.895	3.234	0.446
118.500	135.971	80.009	19.995	103.372	19.898	3.070	0.467
119.000	136.215	80.007	19.994	103.374	19.901	2.841	0.474
119.500	136.446	80.009	19.995	103.374	19.899	3.022	0.476
120.000	136.652	80.009	19.994	103.375	19.897	3.103	0.456
120.500	136.906	80.006	19.994	103.374	19.896	3.209	0.448
121.001	137.138	80.009	19.995	103.373	19.900	2.937	0.473
121.501	137.409	80.009	19.994	103.372	19.898	3.083	0.494
122.000	137.604	80.009	19.995	103.372	19.897	3.135	0.485
122.501	137.844	80.008	19.995	103.372	19.893	3.407	0.450
123.001	138.122	80.009	19.994	103.371	19.896	3.186	0.476
123.501	138.333	80.008	19.994	103.371	19.899	3.033	0.504
124.000	138.507	80.007	19.994	103.371	19.897	3.106	0.437
124.500	138.771	80.009	19.994	103.371	19.896	3.222	0.412
125.000	138.986	80.009	19.995	103.371	19.897	3.112	0.458
125.501	139.236	80.007	19.995	103.371	19.893	3.389	0.472
126.001	139.475	80.007	19.993	103.371	19.895	3.240	0.477
126.500	139.734	80.009	19.995	103.371	19.900	2.933	0.493
127.000	139.939	80.008	19.994	103.371	19.897	3.121	0.481
127.500	140.177	80.008	19.994	103.371	19.896	3.180	0.454
128.000	140.422	80.010	19.994	103.371	19.900	2.928	0.463
128.500	140.671	80.009	19.995	103.371	19.896	3.209	0.489
129.000	140.909	80.009	19.994	103.371	19.894	3.305	0.490
129.500	141.163	80.009	19.994	103.371	19.897	3.119	0.489
130.000	141.359	80.008	19.995	103.371	19.894	3.330	0.471
130.500	141.601	80.008	19.994	103.371	19.900	2.935	0.444
131.000	141.863	80.009	19.995	103.370	19.895	3.231	0.471
131.500	142.112	80.007	19.995	103.370	19.896	3.173	0.508
132.000	142.368	80.007	19.994	103.370	19.894	3.322	0.508
132.500	142.611	80.009	19.994	103.376	19.898	3.059	0.502
133.000	142.843	80.008	19.994	103.378	19.896	3.184	0.487
133.500	143.070	80.008	19.995	103.378	19.901	2.836	0.467
134.000	143.312	80.008	19.995	103.378	19.902	2.802	0.464
134.500	143.551	80.008	19.994	103.377	19.897	3.124	0.475
135.000	143.805	80.007	19.995	103.372	19.899	2.969	0.487
135.500	144.031	80.008	19.995	103.370	19.899	2.971	0.487
136.000	144.288	80.008	19.994	103.370	19.898	3.070	0.481
136.500	144.505	80.007	19.994	103.370	19.899	2.984	0.479
137.000	144.746	80.006	19.994	103.371	19.898	3.092	0.466
137.500	145.018	80.006	19.995	103.371	19.902	2.820	0.485
138.000	145.276	80.006	19.993	103.371	19.896	3.196	0.521
138.500	145.462	80.005	19.994	103.370	19.898	3.045	0.487
139.000	145.760	80.007	19.995	103.371	19.900	2.960	0.464
139.500	145.982	80.006	19.994	103.371	19.899	3.011	0.502
140.000	146.196	80.007	19.994	103.371	19.895	3.258	0.478
140.500	146.472	80.008	19.995	103.371	19.895	3.268	0.463
141.000	146.692	80.007	19.995	103.372	19.899	2.969	0.493
141.500	146.950	80.007	19.995	103.371	19.894	3.328	0.487
142.000	147.222	80.006	19.995	103.370	19.896	3.198	0.504
142.500	147.440	80.007	19.995	103.369	19.896	3.191	0.510
143.000	147.709	80.007	19.995	103.369	19.896	3.225	0.489
143.500	147.960	80.007	19.995	103.368	19.899	3.000	0.504
144.000	148.205	80.007	19.994	103.369	19.898	3.038	0.508
144.500	148.447	80.008	19.996	103.370	19.899	2.978	0.491
145.000	148.719	80.008	19.995	103.370	19.895	3.252	0.501
145.500	148.946	80.007	19.995	103.369	19.897	3.111	0.507
146.000	149.212	80.008	19.994	103.368	19.899	2.996	0.496
146.500	149.507	80.007	19.994	103.368	19.897	3.160	0.527
147.000	149.770	80.008	19.994	103.367	19.895	3.250	0.560
147.500	149.974	80.008	19.994	103.366	19.898	3.092	0.512
148.000	150.209	80.007	19.995	103.367	19.898	3.079	0.452
148.500	150.470	80.006	19.994	103.368	19.896	3.191	0.467
149.000	150.722	80.007	19.995	103.368	19.900	2.908	0.505
149.500	150.967	80.008	19.995	103.368	19.902	2.830	0.505
150.000	151.193	80.007	19.995	103.369	19.896	3.180	0.484
150.500	151.441	80.007	19.995	103.368	19.902	2.802	0.473
151.000	151.720	80.008	19.994	103.368	19.901	2.852	0.500
151.500	151.934	80.007	19.995	103.368	19.901	2.875	0.510
152.000	152.217	80.007	19.993	103.367	19.901	2.880	0.495
152.500	152.495	80.008	19.994	103.363	19.898	3.060	0.529
153.000	152.743	80.007	19.995	103.362	19.901	2.900	0.543
153.500	152.973	80.008	19.994	103.361	19.899	3.012	0.502
154.001	153.200	80.005	19.993	103.360	19.903	2.734	0.467
154.500	153.426	80.008	19.992	103.361	19.903	2.762	0.455
155.000	153.698	80.008	19.994	103.364	19.902	2.819	0.476
155.500	153.939	80.009	19.994	103.363	19.900	2.938	0.505
156.000	154.157	80.007	19.994	103.358	19.899	3.012	0.486
156.500	154.437	80.007	19.994	103.358	19.898	3.042	0.478
157.000	154.687	80.007	19.994	103.358	19.904	2.702	0.514
157.500	154.936	80.008	19.995	103.358	19.899	3.001	0.515
158.000	155.193	80.007	19.994	103.360	19.901	2.893	0.503
158.500	155.447	80.009	19.995	103.367	19.902	2.812	0.509
159.000	155.687	80.007	19.993	103.367	19.900	2.932	0.502
159.500	155.950	80.008	19.994	103.367	19.902	2.797	0.499
160.000	156.201	80.008	19.994	103.366	19.898	3.078	0.509
160.500	156.444	80.007	19.995	103.365	19.898	3.096	0.504
161.000	156.710	80.009	19.994	103.365	19.897	3.147	0.501
161.500	156.943	80.007	19.994	103.362	19.896	3.201	0.504
162.000	157.204	80.007	19.993	103.355	19.899	3.015	0.497
162.500	157.470	80.007	19.994	103.349	19.900	2.904	0.511
163.000	157.741	80.008	19.994	103.341	19.901	2.898	0.532
163.500	157.950	80.008	19.994	103.334	19.898	3.057	0.509
164.000	158.229	80.007	19.993	103.336	19.902	2.788	0.484
164.500	158.469	80.008	19.995	103.340	19.899	2.970	0.503
165.000	158.728	80.007	19.995	103.346	19.901	2.851	0.509
165.500	158.995	80.008	19.995	103.350	19.900	2.905	0.513
166.000	159.254	80.007	19.993	103.352	19.903	2.704	0.526
166.501	159.492	80.006	19.993	103.347	19.903	2.747	0.511
167.000	159.736	80.007	19.995	103.347	19.904	2.650	0.490
167.500	159.988	80.007	19.994	103.345	19.903	2.718	0.489
168.000	160.229	80.007	19.995	103.343	19.905	2.589	0.494
168.500	160.499	80.006	19.996	103.342	19.905	2.574	0.502
169.000	160.789	80.007	19.995	103.342	19.901	2.850	0.535
169.500	160.982	80.006	19.994	103.341	19.899	2.990	0.522
170.000	161.253	80.007	19.995	103.339	19.899	3.031	0.474
170.500	161.470	80.005	19.995	103.341	19.900	2.952	0.476
171.000	161.751	80.007	19.995	103.341	19.900	2.956	0.493
171.500	162.020	80.007	19.994	103.344	19.903	2.745	0.524
172.000	162.243	80.007	19.994	103.346	19.904	2.698	0.521
172.500	162.510	80.007	19.994	103.345	19.902	2.779	0.491
