Sample ID:	C:\MCC\MCC Cal\Test\Memory_Foam_Carpet_Pad_MCC_30K_min_211102_R3.txt
Sample Weight (mg):	4.25
Heating Rate (C/s):	0.5
Combustor Temp (C):	900
N2 Flow Rate (cc/min):	80
O2 Flow Rate (cc/min):	20
Calibration File:	C:\MCC\MCC Cal\Coeff1 JN10440_30_210304.txt.txt
T Correction Coefficients:	0	1.024463	0
Time Shift (s):	14
*
Time (s)	Temperature (C)	N2 flow rate (cc/min)	O2 flow rate (cc/min)	Flow Rate (cc/min)	Oxygen (%)	HRR (W/g)	Heating rate (C/s)
-0.001	108.208	80.003	19.994	103.062	20.143	-0.039	-0.000
0.499	108.213	80.003	19.995	103.063	20.142	-0.019	-0.007
1.000	108.188	80.003	19.996	103.063	20.139	0.214	-0.011
1.500	108.230	80.002	19.997	103.061	20.141	0.099	-0.001
2.000	108.201	80.004	19.995	103.060	20.145	-0.198	0.015
2.500	108.182	80.002	19.995	103.060	20.143	-0.103	-0.018
3.000	108.222	80.005	19.995	103.060	20.140	0.157	-0.014
3.500	108.204	80.003	19.995	103.059	20.145	-0.194	0.022
4.000	108.198	80.003	19.995	103.061	20.141	0.060	-0.001
4.500	108.203	80.002	19.995	103.062	20.143	-0.107	-0.013
5.000	108.184	80.003	19.994	103.062	20.140	0.169	-0.008
5.500	108.144	80.002	19.995	103.062	20.141	0.045	-0.036
6.000	108.175	80.004	19.994	103.063	20.142	-0.023	-0.034
6.500	108.194	80.002	19.994	103.064	20.136	0.445	0.020
7.000	108.213	80.003	19.994	103.064	20.144	-0.128	0.044
7.500	108.189	80.002	19.994	103.065	20.140	0.115	0.016
8.000	108.139	80.003	19.994	103.065	20.138	0.315	-0.040
8.499	108.135	80.003	19.995	103.065	20.143	-0.111	-0.064
8.999	108.212	80.002	19.995	103.066	20.140	0.169	0.009
9.499	108.200	80.002	19.994	103.066	20.138	0.330	0.069
9.999	108.157	80.003	19.994	103.066	20.140	0.117	0.006
10.499	108.191	80.003	19.994	103.066	20.144	-0.146	-0.032
10.999	108.157	80.003	19.994	103.066	20.138	0.295	-0.005
11.500	108.164	80.003	19.995	103.066	20.136	0.468	-0.014
12.000	108.177	80.003	19.994	103.066	20.136	0.418	-0.004
12.499	108.183	80.003	19.995	103.067	20.138	0.297	0.020
12.999	108.174	80.002	19.995	103.066	20.140	0.161	0.008
13.499	108.206	80.003	19.994	103.067	20.137	0.342	0.010
13.999	108.199	80.004	19.994	103.067	20.136	0.425	0.024
14.499	108.172	80.003	19.994	103.070	20.140	0.177	-0.005
14.999	108.191	80.003	19.994	103.072	20.137	0.347	-0.021
15.499	108.165	80.003	19.994	103.072	20.142	0.004	-0.008
15.999	108.182	80.003	19.995	103.074	20.138	0.332	-0.008
16.499	108.183	80.004	19.995	103.078	20.142	0.006	0.005
16.999	108.174	80.004	19.995	103.075	20.139	0.208	0.005
17.499	108.204	80.005	19.994	103.078	20.137	0.390	0.007
17.999	108.194	80.005	19.994	103.083	20.134	0.621	0.021
18.499	108.210	80.006	19.994	103.088	20.135	0.539	0.013
18.999	108.220	80.004	19.995	103.092	20.136	0.487	0.015
19.499	108.214	80.006	19.994	103.098	20.136	0.471	0.015
19.999	108.237	80.005	19.994	103.100	20.134	0.580	0.011
20.499	108.224	80.004	19.995	103.099	20.138	0.339	0.013
20.999	108.246	80.006	19.994	103.092	20.131	0.846	0.010
21.499	108.228	80.005	19.995	103.086	20.131	0.807	0.007
22.000	108.219	80.006	19.994	103.084	20.132	0.770	-0.012
22.500	108.229	80.005	19.994	103.084	20.136	0.464	-0.013
22.999	108.269	80.005	19.994	103.090	20.131	0.807	0.026
23.499	108.242	80.005	19.995	103.099	20.130	0.925	0.031
24.000	108.283	80.004	19.994	103.112	20.129	0.960	0.013
24.500	108.278	80.005	19.994	103.125	20.129	0.954	0.026
24.999	108.298	80.005	19.995	103.141	20.122	1.499	0.026
25.499	108.306	80.005	19.995	103.154	20.124	1.327	0.021
25.999	108.327	80.004	19.996	103.172	20.125	1.288	0.028
26.499	108.322	80.005	19.994	103.185	20.121	1.626	0.022
26.999	108.327	80.004	19.995	103.196	20.120	1.676	0.008
27.500	108.382	80.004	19.994	103.204	20.122	1.536	0.030
28.000	108.401	80.005	19.994	103.210	20.116	1.983	0.067
28.499	108.425	80.004	19.994	103.212	20.116	1.932	0.059
28.999	108.509	80.004	19.996	103.219	20.116	2.006	0.076
29.499	108.519	80.004	19.994	103.227	20.115	2.066	0.101
29.999	108.548	80.004	19.996	103.235	20.112	2.278	0.066
30.499	108.575	80.005	19.995	103.243	20.110	2.427	0.047
31.000	108.621	80.004	19.996	103.251	20.110	2.392	0.065
31.500	108.639	80.005	19.995	103.254	20.112	2.266	0.069
31.999	108.708	80.004	19.996	103.250	20.106	2.745	0.076
32.499	108.730	80.004	19.996	103.248	20.105	2.823	0.089
32.999	108.792	80.004	19.995	103.247	20.105	2.824	0.087
33.499	108.856	80.003	19.995	103.246	20.104	2.844	0.105
33.999	108.897	80.004	19.994	103.245	20.108	2.551	0.115
34.499	108.941	80.006	19.995	103.249	20.108	2.563	0.095
34.999	108.991	80.003	19.995	103.251	20.105	2.768	0.090
35.499	109.055	80.003	19.995	103.250	20.104	2.885	0.104
35.999	109.125	80.005	19.995	103.249	20.104	2.893	0.124
36.499	109.214	80.006	19.996	103.250	20.104	2.846	0.146
36.999	109.278	80.006	19.995	103.246	20.107	2.617	0.156
37.499	109.336	80.005	19.995	103.241	20.106	2.757	0.137
37.999	109.388	80.003	19.996	103.243	20.103	2.951	0.116
38.499	109.499	80.005	19.995	103.241	20.104	2.874	0.136
38.999	109.550	80.005	19.996	103.234	20.106	2.753	0.163
39.499	109.633	80.005	19.997	103.235	20.105	2.823	0.149
39.999	109.711	80.005	19.995	103.236	20.107	2.641	0.148
40.500	109.748	80.006	19.995	103.235	20.103	2.971	0.138
41.000	109.820	80.007	19.994	103.232	20.105	2.831	0.111
41.500	109.896	80.007	19.995	103.235	20.103	2.986	0.129
42.000	109.968	80.005	19.995	103.231	20.104	2.879	0.148
42.499	110.070	80.006	19.994	103.232	20.102	3.013	0.161
42.999	110.153	80.006	19.995	103.233	20.101	3.106	0.179
43.499	110.248	80.007	19.994	103.240	20.104	2.856	0.182
43.999	110.291	80.007	19.993	103.244	20.103	2.939	0.158
44.499	110.377	80.007	19.994	103.251	20.100	3.156	0.133
44.999	110.473	80.008	19.995	103.250	20.103	2.964	0.155
45.499	110.591	80.008	19.993	103.245	20.099	3.277	0.198
45.999	110.633	80.008	19.995	103.240	20.101	3.098	0.187
46.499	110.719	80.008	19.993	103.234	20.103	2.919	0.144
46.999	110.835	80.007	19.994	103.228	20.104	2.902	0.165
47.499	110.921	80.008	19.993	103.225	20.103	2.954	0.202
47.999	111.028	80.007	19.993	103.223	20.105	2.772	0.198
48.499	111.114	80.005	19.993	103.220	20.101	3.115	0.193
48.999	111.233	80.007	19.994	103.221	20.101	3.069	0.199
49.499	111.323	80.006	19.993	103.222	20.100	3.167	0.207
49.999	111.372	80.006	19.994	103.221	20.103	2.991	0.175
50.500	111.470	80.006	19.994	103.221	20.103	2.960	0.143
51.000	111.585	80.006	19.994	103.222	20.101	3.115	0.180
51.499	111.709	80.006	19.993	103.220	20.100	3.200	0.226
51.999	111.798	80.005	19.994	103.224	20.099	3.222	0.226
52.499	111.886	80.006	19.993	103.224	20.100	3.177	0.195
52.999	111.989	80.004	19.993	103.225	20.101	3.082	0.184
53.499	112.137	80.005	19.994	103.231	20.100	3.220	0.222
53.999	112.202	80.005	19.993	103.236	20.103	2.942	0.232
54.499	112.327	80.005	19.993	103.235	20.102	3.059	0.201
54.999	112.443	80.004	19.994	103.237	20.099	3.264	0.215
55.499	112.522	80.004	19.995	103.239	20.103	2.965	0.219
55.999	112.632	80.003	19.993	103.236	20.102	2.995	0.192
56.499	112.732	80.003	19.994	103.238	20.102	3.008	0.199
57.000	112.824	80.004	19.995	103.244	20.100	3.151	0.201
57.500	112.936	80.004	19.993	103.250	20.101	3.078	0.198
57.999	113.062	80.003	19.994	103.254	20.100	3.149	0.221
58.499	113.184	80.003	19.994	103.257	20.101	3.105	0.243
58.999	113.280	80.004	19.994	103.257	20.100	3.147	0.233
59.499	113.386	80.004	19.993	103.255	20.099	3.295	0.210
59.999	113.466	80.004	19.994	103.256	20.100	3.165	0.194
60.499	113.613	80.003	19.994	103.258	20.095	3.568	0.206
60.999	113.740	80.003	19.994	103.258	20.101	3.124	0.250
61.500	113.887	80.005	19.994	103.259	20.099	3.294	0.274
62.000	113.998	80.005	19.994	103.260	20.100	3.159	0.266
62.499	114.106	80.003	19.995	103.259	20.099	3.244	0.239
62.999	114.238	80.003	19.994	103.259	20.099	3.244	0.229
63.499	114.383	80.004	19.994	103.259	20.098	3.318	0.259
63.999	114.497	80.002	19.995	103.259	20.097	3.419	0.268
64.499	114.633	80.003	19.994	103.260	20.096	3.471	0.254
64.999	114.721	80.003	19.994	103.260	20.095	3.560	0.237
65.499	114.901	80.004	19.993	103.261	20.094	3.632	0.246
65.999	115.000	80.003	19.994	103.265	20.095	3.581	0.274
66.499	115.121	80.005	19.994	103.266	20.093	3.740	0.250
67.000	115.253	80.005	19.994	103.267	20.093	3.700	0.236
67.500	115.367	80.003	19.994	103.273	20.097	3.416	0.249
67.999	115.501	80.004	19.994	103.279	20.094	3.651	0.247
68.500	115.636	80.004	19.994	103.278	20.094	3.635	0.259
69.000	115.793	80.003	19.994	103.279	20.095	3.568	0.280
69.499	115.948	80.003	19.994	103.285	20.092	3.756	0.302
69.999	116.105	80.003	19.994	103.285	20.094	3.616	0.312
70.499	116.218	80.004	19.994	103.285	20.093	3.738	0.291
70.999	116.342	80.004	19.993	103.290	20.091	3.839	0.253
71.499	116.479	80.002	19.993	103.296	20.091	3.845	0.249
72.000	116.650	80.003	19.994	103.296	20.094	3.666	0.284
72.500	116.813	80.003	19.993	103.297	20.093	3.740	0.321
72.999	116.925	80.003	19.994	103.295	20.091	3.856	0.304
73.499	117.096	80.005	19.994	103.289	20.093	3.738	0.279
73.999	117.244	80.004	19.992	103.288	20.093	3.678	0.301
74.499	117.375	80.003	19.995	103.286	20.093	3.734	0.299
74.999	117.543	80.002	19.995	103.288	20.091	3.833	0.289
75.499	117.723	80.003	19.994	103.291	20.093	3.690	0.323
75.999	117.863	80.005	19.995	103.292	20.090	3.955	0.334
76.499	118.034	80.003	19.994	103.293	20.091	3.899	0.316
76.999	118.141	80.003	19.993	103.296	20.090	3.955	0.294
77.499	118.317	80.004	19.993	103.296	20.091	3.864	0.280
77.999	118.460	80.004	19.994	103.296	20.093	3.678	0.301
78.500	118.634	80.004	19.994	103.299	20.088	4.068	0.319
79.000	118.777	80.004	19.993	103.299	20.089	4.033	0.317
79.499	118.949	80.005	19.994	103.298	20.090	3.971	0.316
79.999	119.097	80.002	19.994	103.299	20.090	3.965	0.317
80.500	119.210	80.003	19.992	103.299	20.090	3.961	0.290
81.000	119.409	80.003	19.993	103.300	20.091	3.831	0.286
81.500	119.578	80.005	19.994	103.301	20.090	3.959	0.340
82.001	119.747	80.004	19.995	103.301	20.091	3.897	0.353
82.501	119.893	80.004	19.994	103.301	20.091	3.893	0.327
83.000	120.084	80.004	19.994	103.302	20.089	4.023	0.326
83.499	120.268	80.003	19.994	103.302	20.089	4.037	0.356
83.999	120.443	80.003	19.994	103.301	20.089	3.984	0.367
84.499	120.592	80.003	19.994	103.303	20.089	4.031	0.341
84.999	120.704	80.004	19.993	103.302	20.090	3.921	0.292
85.499	120.894	80.004	19.995	103.301	20.086	4.248	0.282
85.999	121.037	80.004	19.995	103.301	20.087	4.173	0.318
86.499	121.232	80.004	19.994	103.303	20.090	3.925	0.335
86.999	121.435	80.003	19.995	103.304	20.084	4.365	0.368
87.499	121.605	80.003	19.993	103.306	20.087	4.155	0.386
87.999	121.841	80.002	19.994	103.308	20.090	3.913	0.390
88.499	121.985	80.002	19.994	103.308	20.089	4.008	0.393
88.999	122.177	80.003	19.994	103.306	20.089	4.009	0.358
89.499	122.354	80.003	19.995	103.302	20.087	4.203	0.352
89.999	122.519	80.001	19.994	103.301	20.086	4.238	0.355
90.499	122.704	80.003	19.994	103.298	20.087	4.182	0.346
90.999	122.898	80.004	19.994	103.299	20.089	4.008	0.365
91.499	123.084	80.003	19.995	103.299	20.086	4.250	0.380
91.999	123.284	80.002	19.994	103.299	20.089	4.029	0.383
92.500	123.476	80.002	19.994	103.299	20.088	4.066	0.389
93.001	123.624	80.003	19.995	103.301	20.089	4.012	0.366
93.500	123.807	80.004	19.995	103.300	20.085	4.297	0.335
93.999	123.994	80.004	19.994	103.299	20.088	4.097	0.351
94.499	124.205	80.002	19.995	103.299	20.090	3.936	0.384
94.999	124.365	80.002	19.996	103.299	20.089	4.019	0.385
95.499	124.578	80.002	19.995	103.297	20.091	3.891	0.372
95.999	124.758	80.003	19.995	103.295	20.086	4.252	0.383
96.499	124.954	80.003	19.996	103.293	20.090	3.973	0.385
96.999	125.132	80.002	19.994	103.290	20.089	4.045	0.375
97.499	125.322	80.004	19.994	103.290	20.088	4.070	0.371
97.999	125.502	80.003	19.995	103.290	20.087	4.161	0.369
98.499	125.673	80.003	19.995	103.292	20.084	4.405	0.361
99.000	125.902	80.003	19.995	103.296	20.085	4.339	0.375
99.501	126.112	80.004	19.994	103.301	20.088	4.110	0.420
100.000	126.289	80.006	19.995	103.304	20.087	4.180	0.413
100.499	126.466	80.003	19.995	103.305	20.089	4.027	0.370
100.999	126.666	80.004	19.995	103.304	20.088	4.089	0.366
101.499	126.875	80.004	19.994	103.302	20.087	4.201	0.393
101.999	127.065	80.004	19.994	103.299	20.089	4.025	0.403
102.499	127.279	80.004	19.995	103.296	20.086	4.250	0.401
102.999	127.471	80.004	19.994	103.295	20.088	4.091	0.405
103.499	127.665	80.005	19.995	103.296	20.086	4.279	0.396
103.999	127.869	80.005	19.994	103.296	20.086	4.265	0.392
104.499	128.076	80.004	19.995	103.297	20.090	3.951	0.405
104.999	128.253	80.006	19.995	103.296	20.086	4.257	0.398
105.499	128.462	80.006	19.995	103.297	20.085	4.340	0.385
105.999	128.700	80.006	19.995	103.296	20.086	4.226	0.417
106.500	128.861	80.005	19.994	103.297	20.086	4.263	0.423
107.000	129.056	80.006	19.995	103.297	20.086	4.257	0.378
107.499	129.299	80.006	19.994	103.299	20.083	4.506	0.397
107.999	129.503	80.006	19.993	103.299	20.087	4.168	0.442
108.499	129.715	80.007	19.995	103.298	20.084	4.378	0.431
108.999	129.916	80.005	19.995	103.297	20.086	4.277	0.414
109.499	130.105	80.003	19.994	103.299	20.085	4.318	0.401
109.999	130.354	80.005	19.995	103.300	20.084	4.413	0.414
110.500	130.540	80.006	19.994	103.304	20.084	4.397	0.436
111.000	130.747	80.005	19.995	103.304	20.081	4.608	0.414
111.500	130.920	80.004	19.994	103.307	20.082	4.544	0.386
112.000	131.156	80.004	19.994	103.310	20.082	4.546	0.394
112.499	131.368	80.005	19.995	103.310	20.084	4.395	0.428
112.999	131.568	80.006	19.994	103.307	20.082	4.551	0.430
113.499	131.756	80.003	19.995	103.311	20.081	4.603	0.400
113.999	131.990	80.005	19.994	103.311	20.082	4.529	0.406
114.499	132.223	80.005	19.994	103.310	20.082	4.529	0.445
114.999	132.424	80.005	19.994	103.314	20.082	4.535	0.451
115.499	132.628	80.005	19.995	103.319	20.085	4.355	0.419
115.999	132.865	80.004	19.995	103.320	20.081	4.599	0.422
116.499	133.058	80.006	19.994	103.320	20.080	4.708	0.436
116.999	133.314	80.004	19.995	103.318	20.086	4.271	0.440
117.499	133.517	80.004	19.995	103.314	20.081	4.632	0.454
117.999	133.716	80.003	19.995	103.309	20.079	4.748	0.430
118.499	133.926	80.003	19.994	103.304	20.080	4.686	0.405
118.999	134.150	80.003	19.995	103.304	20.082	4.547	0.421
119.499	134.387	80.004	19.995	103.303	20.084	4.374	0.448
119.999	134.572	80.003	19.995	103.301	20.084	4.374	0.442
120.500	134.792	80.005	19.995	103.303	20.082	4.523	0.414
121.000	135.021	80.005	19.994	103.307	20.083	4.502	0.427
121.499	135.261	80.004	19.995	103.308	20.085	4.316	0.459
121.999	135.498	80.004	19.996	103.308	20.081	4.601	0.474
122.499	135.733	80.003	19.996	103.308	20.082	4.556	0.475
122.999	135.916	80.005	19.995	103.306	20.084	4.432	0.445
123.499	136.127	80.004	19.995	103.302	20.084	4.378	0.406
123.999	136.358	80.004	19.995	103.300	20.082	4.516	0.418
124.499	136.578	80.003	19.996	103.299	20.082	4.578	0.446
124.999	136.792	80.005	19.995	103.299	20.083	4.467	0.443
125.499	137.001	80.004	19.994	103.299	20.085	4.351	0.429
125.999	137.200	80.004	19.995	103.298	20.084	4.430	0.415
126.499	137.458	80.005	19.995	103.297	20.084	4.382	0.432
126.999	137.662	80.006	19.993	103.297	20.083	4.506	0.459
127.499	137.938	80.005	19.994	103.298	20.083	4.467	0.471
127.999	138.143	80.004	19.994	103.298	20.085	4.293	0.480
128.500	138.322	80.005	19.995	103.297	20.083	4.487	0.432
129.000	138.583	80.005	19.993	103.298	20.082	4.570	0.412
129.500	138.830	80.004	19.994	103.299	20.084	4.432	0.474
130.000	139.053	80.004	19.994	103.298	20.086	4.266	0.490
130.500	139.275	80.004	19.995	103.298	20.083	4.494	0.458
131.000	139.499	80.004	19.994	103.300	20.081	4.609	0.445
131.500	139.720	80.004	19.993	103.301	20.079	4.797	0.445
132.000	139.954	80.005	19.995	103.306	20.079	4.752	0.450
132.500	140.195	80.005	19.993	103.306	20.086	4.258	0.465
133.000	140.402	80.005	19.994	103.306	20.081	4.634	0.461
133.500	140.688	80.003	19.993	103.306	20.081	4.630	0.471
134.000	140.911	80.005	19.993	103.308	20.081	4.611	0.501
134.500	141.175	80.004	19.993	103.303	20.080	4.682	0.498
135.000	141.367	80.004	19.993	103.302	20.081	4.616	0.472
135.500	141.593	80.005	19.994	103.302	20.082	4.525	0.437
136.000	141.789	80.005	19.993	103.302	20.083	4.504	0.420
136.500	142.062	80.006	19.993	103.299	20.083	4.456	0.445
137.000	142.258	80.006	19.995	103.300	20.082	4.568	0.469
137.500	142.486	80.006	19.994	103.300	20.082	4.543	0.446
138.000	142.750	80.005	19.994	103.300	20.081	4.611	0.458
138.500	142.986	80.004	19.993	103.301	20.078	4.822	0.496
139.000	143.213	80.005	19.993	103.301	20.084	4.429	0.482
139.500	143.450	80.004	19.994	103.300	20.084	4.405	0.464
140.000	143.718	80.002	19.993	103.299	20.080	4.681	0.484
140.500	143.942	80.002	19.993	103.300	20.083	4.481	0.498
141.000	144.168	80.004	19.993	103.300	20.083	4.485	0.471
141.500	144.412	80.003	19.993	103.300	20.083	4.454	0.460
142.000	144.647	80.002	19.994	103.300	20.081	4.611	0.474
142.500	144.893	80.004	19.993	103.301	20.078	4.828	0.480
143.000	145.078	80.004	19.994	103.301	20.079	4.739	0.456
143.500	145.381	80.003	19.994	103.301	20.081	4.603	0.459
144.000	145.591	80.003	19.994	103.301	20.081	4.650	0.500
144.500	145.819	80.003	19.994	103.301	20.079	4.760	0.476
145.000	146.063	80.004	19.993	103.301	20.079	4.770	0.455
145.500	146.281	80.004	19.993	103.302	20.079	4.781	0.467
146.000	146.524	80.004	19.994	103.302	20.078	4.890	0.462
146.500	146.784	80.003	19.994	103.302	20.078	4.818	0.482
147.000	147.016	80.002	19.994	103.301	20.078	4.871	0.497
147.500	147.244	80.004	19.994	103.300	20.078	4.849	0.476
148.000	147.483	80.003	19.994	103.298	20.074	5.136	0.464
148.500	147.716	80.003	19.993	103.298	20.075	5.105	0.469
149.000	147.975	80.004	19.993	103.297	20.078	4.840	0.482
149.500	148.234	80.003	19.993	103.297	20.078	4.880	0.505
150.000	148.457	80.003	19.994	103.296	20.075	5.096	0.500
150.500	148.721	80.002	19.994	103.296	20.078	4.830	0.485
151.000	148.974	80.005	19.994	103.296	20.077	4.960	0.502
151.500	149.171	80.004	19.993	103.296	20.078	4.875	0.484
152.000	149.447	80.004	19.994	103.296	20.078	4.846	0.461
152.500	149.687	80.002	19.994	103.297	20.078	4.885	0.494
153.000	149.937	80.004	19.994	103.297	20.079	4.763	0.503
153.500	150.204	80.004	19.994	103.297	20.076	4.989	0.504
154.000	150.400	80.003	19.994	103.297	20.078	4.867	0.490
154.500	150.657	80.003	19.994	103.297	20.079	4.799	0.458
155.000	150.884	80.003	19.993	103.296	20.080	4.714	0.468
155.500	151.113	80.003	19.994	103.296	20.077	4.900	0.470
156.000	151.390	80.003	19.994	103.296	20.077	4.933	0.481
156.500	151.604	80.004	19.994	103.297	20.080	4.692	0.498
157.000	151.840	80.004	19.994	103.297	20.076	5.034	0.470
157.500	152.059	80.004	19.994	103.297	20.079	4.784	0.453
158.000	152.332	80.005	19.993	103.297	20.076	5.036	0.473
158.500	152.566	80.002	19.994	103.295	20.077	4.910	0.499
159.000	152.789	80.004	19.994	103.293	20.077	4.892	0.482
159.500	153.018	80.004	19.995	103.294	20.077	4.900	0.455
160.000	153.267	80.003	19.995	103.295	20.078	4.881	0.465
160.500	153.543	80.003	19.994	103.294	20.078	4.859	0.501
161.000	153.754	80.005	19.994	103.297	20.075	5.047	0.506
161.500	154.004	80.003	19.994	103.297	20.075	5.042	0.474
162.000	154.221	80.004	19.994	103.296	20.073	5.249	0.464
162.500	154.492	80.004	19.995	103.292	20.077	4.929	0.478
163.000	154.689	80.003	19.995	103.288	20.076	4.980	0.478
163.500	154.959	80.005	19.993	103.286	20.077	4.953	0.467
164.000	155.189	80.005	19.995	103.285	20.074	5.147	0.483
164.500	155.429	80.004	19.995	103.284	20.074	5.172	0.485
165.000	155.650	80.004	19.995	103.288	20.072	5.318	0.466
165.500	155.914	80.004	19.994	103.291	20.072	5.289	0.473
166.000	156.164	80.003	19.995	103.293	20.074	5.145	0.499
166.500	156.445	80.004	19.994	103.295	20.074	5.135	0.522
167.000	156.648	80.005	19.993	103.293	20.073	5.225	0.507
167.500	156.914	80.004	19.993	103.292	20.074	5.178	0.477
168.000	157.187	80.003	19.994	103.290	20.076	5.029	0.504
168.500	157.423	80.003	19.994	103.288	20.071	5.418	0.524
169.000	157.690	80.002	19.994	103.286	20.074	5.135	0.506
169.500	157.917	80.004	19.995	103.289	20.074	5.131	0.499
170.000	158.145	80.004	19.993	103.288	20.074	5.175	0.475
170.500	158.412	80.003	19.994	103.289	20.072	5.290	0.475
171.000	158.620	80.003	19.994	103.291	20.071	5.350	0.484
171.500	158.914	80.003	19.994	103.292	20.071	5.363	0.488
172.000	159.117	80.004	19.996	103.291	20.070	5.443	0.499
172.500	159.346	80.003	19.995	103.290	20.071	5.360	0.465
