Sample ID:	C:\MCC\MCC Cal\Test\Polyester_Carpet_HighPile_MCC_30K_min_211027_R3.txt
Sample Weight (mg):	4.74
Heating Rate (C/s):	0.5
Combustor Temp (C):	900
N2 Flow Rate (cc/min):	80
O2 Flow Rate (cc/min):	20
Calibration File:	C:\MCC\MCC Cal\Coeff1 JN10440_30_210304.txt.txt
T Correction Coefficients:	0	1.024463	0
Time Shift (s):	14
*
Time (s)	Temperature (C)	N2 flow rate (cc/min)	O2 flow rate (cc/min)	Flow Rate (cc/min)	Oxygen (%)	HRR (W/g)	Heating rate (C/s)
0.000	108.184	79.998	19.995	102.997	20.260	-0.335	-0.019
0.500	108.214	79.999	19.994	102.999	20.259	-0.278	-0.033
0.999	108.225	79.999	19.995	103.000	20.259	-0.270	0.011
1.499	108.196	79.998	19.996	103.003	20.259	-0.282	0.011
1.999	108.189	79.998	19.995	103.004	20.261	-0.424	-0.027
2.499	108.209	79.999	19.995	103.005	20.264	-0.613	-0.012
2.999	108.232	79.999	19.995	103.005	20.260	-0.340	0.028
3.500	108.209	79.998	19.995	103.006	20.258	-0.248	0.022
4.000	108.203	79.999	19.996	103.004	20.260	-0.384	-0.014
4.500	108.211	79.998	19.997	103.005	20.262	-0.473	-0.013
5.000	108.218	79.999	19.996	103.005	20.260	-0.388	0.009
5.500	108.255	80.000	19.997	103.007	20.261	-0.424	0.029
6.000	108.213	79.997	19.996	103.006	20.261	-0.452	0.019
6.500	108.220	79.998	19.995	103.005	20.265	-0.669	-0.020
7.000	108.213	79.999	19.995	103.005	20.263	-0.569	-0.017
7.500	108.154	79.999	19.995	103.006	20.261	-0.446	-0.033
8.000	108.224	79.999	19.994	103.005	20.260	-0.327	-0.027
8.500	108.234	79.999	19.995	103.008	20.263	-0.550	0.045
9.000	108.225	79.999	19.995	103.010	20.261	-0.437	0.041
9.500	108.215	79.999	19.994	103.011	20.258	-0.238	-0.008
10.000	108.189	80.000	19.996	103.009	20.261	-0.461	-0.027
10.500	108.202	79.999	19.995	103.008	20.260	-0.376	-0.025
11.000	108.178	79.998	19.993	103.005	20.263	-0.539	-0.012
11.501	108.212	80.000	19.996	103.006	20.262	-0.518	0.000
12.001	108.191	79.999	19.997	103.014	20.262	-0.486	0.012
12.500	108.202	80.000	19.996	103.021	20.259	-0.259	0.001
13.000	108.194	80.000	19.996	103.029	20.257	-0.191	-0.003
13.500	108.226	80.002	19.995	103.034	20.259	-0.286	0.014
14.000	108.244	80.000	19.996	103.037	20.261	-0.448	0.037
14.500	108.209	80.001	19.995	103.037	20.259	-0.261	0.016
15.000	108.188	80.000	19.996	103.037	20.258	-0.257	-0.036
15.500	108.213	80.001	19.996	103.033	20.259	-0.286	-0.026
16.000	108.234	80.000	19.996	103.030	20.258	-0.223	0.024
16.500	108.226	79.999	19.995	103.025	20.257	-0.189	0.030
17.000	108.238	80.000	19.996	103.021	20.257	-0.151	0.009
17.500	108.234	80.001	19.996	103.021	20.257	-0.191	0.006
18.000	108.249	80.000	19.996	103.023	20.258	-0.203	0.010
18.500	108.268	80.000	19.995	103.021	20.255	0.011	0.023
19.000	108.287	80.000	19.995	103.023	20.256	-0.079	0.036
19.500	108.262	79.999	19.996	103.027	20.254	0.025	0.016
20.000	108.259	79.999	19.996	103.026	20.255	-0.053	-0.017
20.500	108.279	80.001	19.997	103.028	20.252	0.199	-0.005
21.000	108.295	79.999	19.995	103.035	20.253	0.114	0.027
21.500	108.340	79.999	19.995	103.039	20.251	0.220	0.048
22.000	108.342	79.999	19.996	103.043	20.249	0.375	0.054
22.500	108.343	80.000	19.996	103.045	20.252	0.195	0.025
23.000	108.345	79.999	19.996	103.043	20.251	0.271	0.003
23.500	108.328	79.999	19.996	103.040	20.253	0.121	-0.006
24.000	108.371	80.000	19.997	103.037	20.251	0.261	0.005
24.500	108.366	79.999	19.996	103.031	20.247	0.526	0.032
25.000	108.382	79.999	19.996	103.031	20.248	0.485	0.024
25.500	108.372	79.999	19.996	103.041	20.248	0.424	0.008
26.000	108.388	79.999	19.996	103.052	20.248	0.456	0.006
26.500	108.437	79.998	19.996	103.064	20.246	0.612	0.036
27.000	108.440	80.000	19.995	103.074	20.247	0.542	0.059
27.500	108.474	80.000	19.995	103.090	20.244	0.729	0.045
28.000	108.452	79.999	19.994	103.098	20.244	0.695	0.025
28.500	108.500	79.999	19.995	103.106	20.243	0.762	0.019
29.000	108.530	79.999	19.996	103.113	20.241	0.938	0.052
29.500	108.541	80.000	19.994	103.122	20.241	0.932	0.059
30.000	108.548	79.999	19.996	103.123	20.242	0.864	0.030
30.500	108.599	79.999	19.995	103.127	20.239	1.063	0.038
31.000	108.625	80.000	19.995	103.130	20.241	0.945	0.067
31.500	108.655	79.999	19.995	103.134	20.239	1.038	0.066
32.001	108.657	79.999	19.996	103.140	20.238	1.100	0.044
32.500	108.729	80.001	19.996	103.147	20.234	1.386	0.053
32.999	108.739	80.000	19.995	103.154	20.232	1.547	0.078
33.499	108.777	80.000	19.995	103.160	20.235	1.367	0.065
33.999	108.836	80.001	19.995	103.169	20.234	1.437	0.073
34.499	108.876	80.000	19.994	103.170	20.229	1.772	0.098
34.999	108.900	80.001	19.996	103.169	20.232	1.547	0.081
35.499	108.938	80.001	19.995	103.169	20.227	1.878	0.063
35.999	108.983	80.002	19.996	103.173	20.232	1.539	0.072
36.499	109.059	80.002	19.995	103.173	20.230	1.670	0.102
36.999	109.092	80.000	19.996	103.182	20.233	1.500	0.115
37.499	109.169	80.001	19.996	103.196	20.229	1.727	0.110
37.999	109.195	80.001	19.996	103.208	20.230	1.644	0.107
38.499	109.244	80.001	19.996	103.214	20.229	1.765	0.089
38.999	109.315	80.000	19.995	103.216	20.229	1.723	0.097
39.499	109.365	80.001	19.995	103.214	20.230	1.669	0.121
39.999	109.463	80.003	19.996	103.206	20.227	1.875	0.134
40.499	109.527	80.002	19.996	103.198	20.229	1.760	0.154
40.999	109.543	80.001	19.996	103.193	20.226	1.962	0.121
41.499	109.608	80.001	19.996	103.191	20.227	1.873	0.081
41.999	109.691	80.002	19.996	103.184	20.224	2.108	0.115
42.499	109.761	80.002	19.996	103.175	20.226	1.934	0.150
42.999	109.875	80.001	19.997	103.167	20.226	1.930	0.168
43.499	109.916	80.000	19.997	103.162	20.224	2.074	0.170
43.999	109.987	80.003	19.997	103.158	20.224	2.065	0.133
44.499	110.067	80.001	19.995	103.159	20.226	1.963	0.131
45.000	110.155	80.001	19.995	103.160	20.225	2.040	0.159
45.501	110.207	80.001	19.995	103.160	20.226	1.938	0.154
46.000	110.287	80.002	19.997	103.158	20.225	2.042	0.137
46.499	110.363	80.001	19.996	103.156	20.225	2.012	0.144
46.999	110.448	80.001	19.996	103.158	20.225	2.023	0.158
47.499	110.502	80.002	19.996	103.163	20.224	2.073	0.150
47.999	110.562	80.001	19.996	103.170	20.224	2.082	0.127
48.499	110.655	80.000	19.996	103.175	20.222	2.207	0.133
48.999	110.770	80.000	19.996	103.177	20.221	2.262	0.180
49.499	110.842	80.000	19.997	103.180	20.225	2.004	0.197
49.999	110.959	80.001	19.996	103.183	20.225	2.023	0.188
50.499	111.066	79.999	19.997	103.185	20.222	2.192	0.207
50.999	111.148	79.998	19.997	103.189	20.223	2.127	0.207
51.499	111.209	79.999	19.997	103.192	20.222	2.243	0.166
51.999	111.324	80.000	19.996	103.194	20.223	2.120	0.159
52.499	111.413	79.999	19.996	103.192	20.223	2.154	0.190
52.999	111.559	80.001	19.997	103.191	20.220	2.377	0.220
53.499	111.624	79.998	19.995	103.191	20.220	2.374	0.223
53.999	111.744	79.999	19.995	103.193	20.223	2.181	0.198
54.499	111.822	80.000	19.996	103.198	20.220	2.372	0.192
54.999	111.945	79.999	19.996	103.203	20.220	2.346	0.200
55.499	112.035	79.999	19.996	103.205	20.218	2.467	0.206
55.999	112.135	79.999	19.996	103.208	20.219	2.450	0.201
56.499	112.230	80.000	19.995	103.213	20.218	2.463	0.193
56.999	112.336	79.998	19.995	103.216	20.219	2.426	0.199
57.499	112.460	80.000	19.996	103.215	20.219	2.395	0.216
57.999	112.565	79.999	19.996	103.215	20.219	2.409	0.229
58.499	112.651	80.000	19.995	103.213	20.220	2.374	0.210
58.999	112.801	80.000	19.996	103.209	20.219	2.418	0.214
59.499	112.895	79.999	19.995	103.205	20.221	2.321	0.240
60.000	113.027	80.000	19.995	103.208	20.218	2.484	0.235
60.500	113.143	79.999	19.996	103.207	20.216	2.617	0.237
60.999	113.253	80.000	19.995	103.205	20.219	2.437	0.236
61.500	113.398	79.999	19.995	103.203	20.217	2.539	0.240
62.000	113.498	79.998	19.995	103.199	20.220	2.346	0.250
62.499	113.632	79.998	19.996	103.197	20.220	2.340	0.240
62.999	113.702	79.999	19.996	103.198	20.220	2.367	0.219
63.499	113.838	80.000	19.995	103.203	20.222	2.221	0.205
63.999	113.974	79.999	19.994	103.207	20.219	2.393	0.239
64.499	114.091	80.001	19.996	103.214	20.219	2.433	0.263
64.999	114.232	79.999	19.996	103.219	20.219	2.425	0.256
65.499	114.337	80.000	19.995	103.225	20.220	2.386	0.252
65.999	114.508	79.998	19.995	103.230	20.219	2.441	0.261
66.499	114.625	79.999	19.995	103.233	20.219	2.406	0.282
66.999	114.767	79.999	19.995	103.237	20.220	2.346	0.273
67.499	114.850	80.000	19.996	103.239	20.217	2.545	0.242
68.000	114.984	80.000	19.995	103.243	20.218	2.501	0.221
68.500	115.165	80.000	19.995	103.243	20.215	2.709	0.265
68.999	115.244	79.999	19.995	103.243	20.216	2.634	0.287
69.499	115.406	80.000	19.995	103.241	20.217	2.556	0.250
70.001	115.552	80.000	19.995	103.240	20.217	2.534	0.275
70.501	115.672	79.999	19.995	103.237	20.220	2.337	0.288
70.999	115.839	79.998	19.994	103.236	20.216	2.621	0.276
71.499	115.950	79.999	19.995	103.236	20.217	2.591	0.282
71.999	116.083	79.999	19.995	103.236	20.215	2.666	0.261
72.499	116.238	79.999	19.995	103.236	20.213	2.820	0.266
72.999	116.409	79.999	19.995	103.236	20.212	2.886	0.307
73.499	116.538	80.000	19.995	103.233	20.218	2.516	0.313
73.999	116.695	80.000	19.996	103.233	20.215	2.696	0.293
74.499	116.858	80.000	19.997	103.233	20.214	2.753	0.303
74.999	116.995	79.999	19.996	103.233	20.214	2.793	0.310
75.499	117.152	79.999	19.995	103.233	20.215	2.693	0.297
75.999	117.330	79.999	19.995	103.235	20.214	2.746	0.315
76.499	117.508	80.001	19.995	103.236	20.213	2.829	0.345
76.999	117.646	79.999	19.995	103.236	20.211	2.941	0.335
77.499	117.778	80.000	19.996	103.236	20.215	2.687	0.293
77.999	117.922	80.000	19.995	103.236	20.217	2.560	0.273
78.499	118.080	79.998	19.996	103.231	20.213	2.801	0.289
78.999	118.218	79.999	19.995	103.225	20.212	2.926	0.300
79.499	118.374	79.999	19.996	103.223	20.216	2.659	0.295
79.999	118.558	79.998	19.995	103.223	20.214	2.797	0.317
80.499	118.729	79.999	19.996	103.227	20.212	2.869	0.348
80.999	118.892	79.999	19.996	103.239	20.213	2.829	0.345
81.499	119.030	79.999	19.996	103.250	20.212	2.892	0.317
81.999	119.230	79.998	19.996	103.252	20.212	2.913	0.319
82.499	119.386	79.999	19.995	103.252	20.213	2.814	0.347
82.999	119.509	80.000	19.996	103.248	20.213	2.837	0.317
83.499	119.690	79.999	19.995	103.240	20.212	2.917	0.291
83.999	119.866	79.998	19.996	103.236	20.214	2.775	0.331
84.499	120.018	79.998	19.996	103.235	20.214	2.797	0.342
84.999	120.212	79.998	19.994	103.234	20.213	2.813	0.337
85.499	120.354	79.998	19.995	103.236	20.214	2.778	0.341
85.999	120.565	79.999	19.996	103.237	20.214	2.793	0.344
86.499	120.703	79.997	19.995	103.237	20.213	2.858	0.351
86.999	120.895	79.999	19.995	103.236	20.211	2.996	0.340
87.499	121.084	79.998	19.995	103.237	20.214	2.793	0.356
87.999	121.236	80.000	19.995	103.235	20.213	2.818	0.361
88.499	121.412	79.999	19.995	103.235	20.212	2.886	0.334
89.001	121.596	79.999	19.995	103.236	20.213	2.865	0.344
89.501	121.805	80.000	19.995	103.238	20.212	2.905	0.377
89.999	121.951	79.998	19.995	103.238	20.214	2.778	0.374
90.499	122.167	79.999	19.996	103.239	20.210	3.038	0.358
90.999	122.320	79.998	19.995	103.241	20.211	2.985	0.365
91.499	122.493	79.999	19.994	103.240	20.215	2.674	0.348
91.999	122.691	79.999	19.996	103.241	20.213	2.842	0.349
92.499	122.883	80.000	19.995	103.242	20.213	2.810	0.381
92.999	123.057	79.999	19.995	103.242	20.213	2.848	0.378
93.499	123.258	79.999	19.995	103.242	20.211	2.975	0.370
93.999	123.452	80.000	19.996	103.246	20.210	3.017	0.385
94.499	123.610	80.000	19.995	103.250	20.213	2.850	0.373
94.999	123.852	80.000	19.995	103.252	20.214	2.746	0.376
95.499	123.978	79.999	19.995	103.257	20.213	2.808	0.384
95.999	124.158	80.001	19.995	103.258	20.215	2.727	0.337
96.499	124.379	80.001	19.995	103.255	20.212	2.911	0.353
97.000	124.525	79.999	19.994	103.250	20.212	2.899	0.384
97.500	124.755	80.001	19.995	103.248	20.212	2.882	0.372
97.999	124.927	80.001	19.995	103.245	20.216	2.638	0.389
98.499	125.107	80.002	19.995	103.244	20.212	2.899	0.377
98.999	125.327	80.001	19.995	103.244	20.212	2.878	0.376
99.499	125.481	80.002	19.995	103.245	20.210	3.058	0.387
99.999	125.725	80.002	19.994	103.244	20.212	2.873	0.386
100.499	125.919	80.002	19.995	103.242	20.213	2.857	0.418
100.999	126.101	80.001	19.995	103.239	20.211	2.969	0.407
101.499	126.276	80.002	19.996	103.240	20.212	2.931	0.366
101.999	126.499	80.001	19.994	103.239	20.212	2.907	0.377
102.499	126.654	80.001	19.996	103.239	20.212	2.929	0.388
102.999	126.882	80.002	19.995	103.241	20.214	2.782	0.381
103.499	127.057	80.000	19.995	103.240	20.214	2.776	0.393
104.000	127.264	80.002	19.995	103.237	20.211	3.001	0.392
104.500	127.488	80.001	19.994	103.236	20.215	2.689	0.406
105.000	127.687	80.002	19.995	103.236	20.212	2.884	0.427
105.500	127.872	80.001	19.994	103.237	20.215	2.710	0.403
105.999	128.083	80.002	19.996	103.238	20.213	2.835	0.389
106.499	128.311	80.001	19.996	103.238	20.215	2.683	0.417
106.999	128.486	80.000	19.995	103.239	20.213	2.814	0.421
107.499	128.712	80.002	19.997	103.238	20.213	2.804	0.402
107.999	128.907	80.000	19.995	103.236	20.213	2.844	0.411
108.500	129.112	80.001	19.996	103.234	20.209	3.085	0.410
109.000	129.296	80.001	19.996	103.236	20.215	2.717	0.395
109.499	129.532	80.000	19.996	103.235	20.212	2.918	0.404
109.999	129.733	80.000	19.996	103.235	20.210	3.032	0.429
110.499	129.920	79.999	19.996	103.235	20.214	2.780	0.412
110.999	130.152	80.000	19.996	103.236	20.212	2.907	0.403
111.499	130.321	80.001	19.995	103.234	20.215	2.727	0.410
111.999	130.551	80.000	19.996	103.234	20.214	2.760	0.401
112.499	130.764	80.000	19.996	103.234	20.214	2.795	0.421
112.999	130.946	79.999	19.997	103.234	20.216	2.623	0.419
113.500	131.143	80.000	19.997	103.235	20.215	2.674	0.387
114.000	131.406	79.999	19.996	103.235	20.213	2.812	0.419
114.499	131.585	80.000	19.996	103.236	20.215	2.717	0.451
114.999	131.811	80.000	19.997	103.236	20.215	2.717	0.423
115.499	132.035	80.000	19.996	103.236	20.211	2.941	0.428
115.999	132.218	80.000	19.996	103.234	20.216	2.649	0.429
116.499	132.437	80.000	19.996	103.235	20.214	2.738	0.405
116.999	132.687	80.002	19.996	103.237	20.212	2.871	0.435
117.499	132.908	80.001	19.995	103.237	20.213	2.818	0.470
117.999	133.106	80.001	19.996	103.237	20.216	2.606	0.445
118.499	133.314	80.001	19.996	103.238	20.214	2.793	0.413
118.999	133.521	80.002	19.995	103.237	20.218	2.477	0.410
119.499	133.776	80.001	19.996	103.236	20.214	2.765	0.438
119.999	133.969	80.003	19.996	103.238	20.215	2.715	0.455
120.500	134.166	80.002	19.997	103.240	20.213	2.859	0.419
121.000	134.379	80.002	19.996	103.246	20.212	2.869	0.400
121.499	134.618	80.001	19.996	103.250	20.212	2.909	0.431
121.999	134.800	80.002	19.997	103.253	20.213	2.865	0.437
122.499	135.017	80.002	19.995	103.256	20.214	2.778	0.410
122.999	135.249	80.002	19.995	103.258	20.213	2.810	0.424
123.499	135.460	80.001	19.996	103.254	20.214	2.774	0.446
123.999	135.708	80.001	19.996	103.250	20.214	2.753	0.451
124.499	135.960	80.002	19.995	103.246	20.214	2.787	0.479
124.999	136.141	80.004	19.996	103.241	20.214	2.791	0.466
125.499	136.368	80.002	19.995	103.241	20.214	2.765	0.421
125.999	136.599	80.003	19.995	103.243	20.212	2.918	0.433
126.499	136.844	80.002	19.995	103.244	20.211	3.000	0.467
126.999	137.081	80.000	19.996	103.247	20.215	2.679	0.479
127.499	137.290	80.002	19.996	103.246	20.213	2.835	0.464
127.999	137.511	80.001	19.995	103.245	20.215	2.714	0.438
128.500	137.756	80.002	19.995	103.240	20.214	2.793	0.448
129.000	137.925	80.001	19.996	103.239	20.214	2.746	0.440
129.500	138.161	80.001	19.996	103.236	20.213	2.807	0.410
130.000	138.387	80.002	19.995	103.234	20.216	2.638	0.433
130.500	138.633	80.002	19.996	103.233	20.217	2.534	0.467
131.000	138.810	80.000	19.994	103.233	20.213	2.841	0.447
131.500	139.083	80.001	19.996	103.233	20.216	2.628	0.436
132.000	139.302	80.000	19.996	103.234	20.215	2.708	0.471
132.500	139.514	80.001	19.996	103.235	20.212	2.867	0.461
133.000	139.766	79.999	19.995	103.236	20.214	2.768	0.447
133.500	139.978	80.000	19.996	103.236	20.217	2.592	0.464
134.000	140.236	79.999	19.996	103.237	20.214	2.782	0.468
134.500	140.405	80.000	19.996	103.236	20.212	2.918	0.449
135.000	140.670	80.000	19.996	103.236	20.213	2.814	0.430
135.500	140.927	79.999	19.997	103.234	20.212	2.886	0.478
136.000	141.121	79.999	19.996	103.234	20.214	2.740	0.487
136.500	141.365	79.997	19.995	103.234	20.215	2.713	0.445
137.000	141.570	79.997	19.996	103.235	20.212	2.922	0.443
137.500	141.786	79.998	19.996	103.237	20.213	2.812	0.434
138.000	142.030	79.999	19.996	103.238	20.211	2.939	0.440
138.501	142.253	79.997	19.996	103.243	20.212	2.918	0.464
139.001	142.512	79.999	19.997	103.246	20.212	2.899	0.475
139.501	142.702	79.998	19.997	103.246	20.212	2.890	0.465
140.001	142.989	80.000	19.996	103.247	20.214	2.731	0.463
140.500	143.204	79.998	19.996	103.246	20.215	2.691	0.490
141.000	143.420	79.998	19.997	103.243	20.216	2.645	0.466
141.500	143.667	79.999	19.996	103.241	20.214	2.765	0.447
142.000	143.921	79.998	19.996	103.240	20.214	2.761	0.482
142.500	144.135	79.998	19.997	103.237	20.215	2.721	0.485
143.000	144.401	79.999	19.996	103.237	20.216	2.623	0.474
143.500	144.641	79.999	19.996	103.236	20.214	2.787	0.493
144.000	144.850	79.998	19.996	103.239	20.217	2.587	0.477
144.500	145.122	79.998	19.996	103.239	20.214	2.748	0.465
145.000	145.373	80.000	19.996	103.239	20.215	2.706	0.503
145.500	145.599	79.999	19.997	103.239	20.214	2.791	0.500
146.001	145.834	79.999	19.997	103.238	20.216	2.609	0.469
146.501	146.066	79.999	19.996	103.234	20.216	2.655	0.464
147.000	146.260	79.999	19.996	103.234	20.214	2.770	0.446
147.500	146.526	79.998	19.996	103.234	20.213	2.814	0.443
148.000	146.738	79.997	19.996	103.233	20.214	2.746	0.469
148.500	146.982	79.998	19.996	103.234	20.215	2.704	0.467
149.000	147.218	79.998	19.996	103.236	20.217	2.571	0.468
149.500	147.440	79.999	19.995	103.239	20.217	2.554	0.469
150.000	147.679	79.998	19.996	103.239	20.217	2.585	0.459
150.500	147.914	79.998	19.996	103.239	20.215	2.689	0.468
151.000	148.137	79.998	19.996	103.239	20.217	2.579	0.467
151.500	148.381	79.999	19.997	103.238	20.217	2.585	0.463
152.000	148.627	79.999	19.994	103.236	20.215	2.721	0.479
152.500	148.827	80.000	19.996	103.235	20.219	2.458	0.468
153.000	149.111	79.998	19.996	103.237	20.213	2.812	0.465
153.500	149.395	79.999	19.996	103.237	20.213	2.844	0.526
154.000	149.630	80.000	19.995	103.237	20.212	2.876	0.543
154.500	149.839	79.998	19.995	103.238	20.212	2.918	0.481
155.000	150.092	79.999	19.994	103.238	20.215	2.676	0.453
155.500	150.345	79.999	19.996	103.238	20.214	2.757	0.484
156.000	150.611	79.999	19.995	103.238	20.213	2.804	0.513
156.500	150.774	79.999	19.995	103.239	20.213	2.820	0.474
157.000	151.054	79.999	19.994	103.238	20.217	2.537	0.436
157.500	151.282	79.999	19.995	103.238	20.213	2.856	0.476
158.000	151.517	79.999	19.994	103.237	20.216	2.655	0.485
158.500	151.743	79.999	19.995	103.238	20.213	2.840	0.462
159.000	152.035	80.000	19.995	103.237	20.214	2.742	0.489
159.500	152.246	79.999	19.996	103.237	20.211	2.977	0.510
160.000	152.470	79.998	19.994	103.237	20.213	2.840	0.470
160.500	152.693	80.000	19.995	103.237	20.214	2.746	0.441
161.000	152.960	79.999	19.996	103.238	20.214	2.740	0.468
161.500	153.236	80.000	19.996	103.237	20.214	2.732	0.516
162.000	153.445	79.999	19.995	103.237	20.217	2.575	0.514
162.500	153.705	80.001	19.996	103.236	20.217	2.594	0.477
163.000	153.906	80.000	19.995	103.233	20.217	2.550	0.465
163.500	154.182	79.999	19.996	103.232	20.215	2.690	0.469
164.000	154.382	80.000	19.995	103.232	20.216	2.652	0.477
164.500	154.624	79.998	19.994	103.231	20.219	2.423	0.459
165.000	154.882	79.999	19.997	103.232	20.218	2.493	0.471
165.500	155.116	79.998	19.995	103.235	20.218	2.461	0.496
166.000	155.377	79.998	19.995	103.235	20.215	2.727	0.493
166.500	155.599	79.999	19.994	103.235	20.216	2.628	0.489
167.000	155.811	79.999	19.996	103.235	20.216	2.615	0.459
167.500	156.067	79.999	19.996	103.236	20.216	2.639	0.451
168.000	156.315	79.999	19.996	103.235	20.216	2.603	0.486
168.500	156.537	80.000	19.995	103.235	20.219	2.432	0.487
169.000	156.785	79.999	19.996	103.234	20.217	2.529	0.470
169.500	157.043	80.000	19.996	103.234	20.218	2.461	0.488
170.000	157.271	79.998	19.996	103.233	20.221	2.311	0.496
170.500	157.501	80.000	19.995	103.234	20.217	2.565	0.472
171.000	157.764	79.999	19.996	103.233	20.217	2.534	0.475
171.500	157.989	80.001	19.996	103.234	20.221	2.294	0.491
172.000	158.261	80.000	19.996	103.231	20.215	2.716	0.493
