Sample ID:	C:\MCC\MCC Cal\Test\Coffee_Machine_MCC_30K_min_220202_R2.txt
Sample Weight (mg):	4.42
Heating Rate (C/s):	0.5
Combustor Temp (C):	900
N2 Flow Rate (cc/min):	80
O2 Flow Rate (cc/min):	20
Calibration File:	C:\MCC\MCC Cal\Coeff1 JN10440_30_210304.txt.txt
T Correction Coefficients:	0	1.024463	0
Time Shift (s):	14
*
Time (s)	Temperature (C)	N2 flow rate (cc/min)	O2 flow rate (cc/min)	Flow Rate (cc/min)	Oxygen (%)	HRR (W/g)	Heating rate (C/s)
0.000	112.881	80.012	19.992	103.820	19.942	0.197	-0.013
0.500	112.876	80.011	19.993	103.820	19.940	0.332	-0.014
1.000	112.891	80.012	19.992	103.822	19.944	0.040	-0.005
1.500	112.860	80.013	19.993	103.822	19.941	0.235	-0.003
2.000	112.893	80.013	19.993	103.823	19.938	0.507	-0.007
2.500	112.897	80.013	19.993	103.821	19.943	0.143	0.019
3.000	112.884	80.013	19.993	103.819	19.942	0.183	0.014
3.500	112.851	80.013	19.993	103.815	19.939	0.390	-0.027
4.000	112.871	80.012	19.993	103.810	19.942	0.183	-0.029
4.501	112.870	80.014	19.992	103.805	19.942	0.207	0.003
5.001	112.847	80.011	19.991	103.805	19.941	0.267	-0.003
5.500	112.883	80.013	19.992	103.803	19.941	0.221	-0.006
6.000	112.889	80.012	19.993	103.800	19.942	0.161	0.028
6.500	112.873	80.011	19.992	103.799	19.939	0.416	0.016
7.000	112.851	80.012	19.992	103.804	19.938	0.466	-0.024
7.500	112.853	80.012	19.994	103.805	19.939	0.438	-0.029
8.000	112.860	80.011	19.994	103.810	19.939	0.388	-0.005
8.500	112.844	80.012	19.993	103.815	19.940	0.338	0.000
9.000	112.827	80.010	19.993	103.816	19.938	0.470	-0.021
9.500	112.866	80.009	19.993	103.810	19.941	0.285	-0.006
10.000	112.866	80.010	19.994	103.805	19.937	0.529	0.030
10.500	112.860	80.009	19.994	103.802	19.942	0.179	0.016
11.000	112.865	80.010	19.993	103.797	19.939	0.394	-0.004
11.501	112.848	80.010	19.994	103.798	19.938	0.494	-0.006
12.001	112.869	80.010	19.994	103.798	19.940	0.354	-0.004
12.500	112.852	80.009	19.996	103.801	19.939	0.372	0.004
13.000	112.845	80.009	19.998	103.805	19.939	0.410	-0.010
13.500	112.814	80.009	19.996	103.811	19.935	0.723	-0.030
14.000	112.857	80.008	19.995	103.814	19.939	0.402	-0.013
14.501	112.862	80.010	19.994	103.821	19.936	0.621	0.030
15.001	112.828	80.008	19.995	103.830	19.937	0.581	0.009
15.500	112.860	80.012	19.993	103.837	19.933	0.828	-0.016
16.000	112.838	80.009	19.995	103.845	19.934	0.779	0.004
16.500	112.859	80.012	19.993	103.852	19.930	1.073	0.004
17.000	112.821	80.009	19.995	103.857	19.934	0.745	-0.009
17.500	112.861	80.008	19.994	103.859	19.936	0.655	-0.007
18.000	112.848	80.010	19.993	103.859	19.934	0.803	0.014
18.500	112.846	80.009	19.993	103.860	19.932	0.910	0.006
19.000	112.872	80.009	19.992	103.864	19.931	1.018	0.004
19.500	112.870	80.011	19.993	103.872	19.928	1.225	0.024
20.000	112.889	80.010	19.994	103.880	19.928	1.193	0.021
20.500	112.893	80.010	19.994	103.888	19.927	1.319	0.020
21.000	112.855	80.011	19.993	103.898	19.924	1.518	-0.006
21.501	112.880	80.010	19.993	103.907	19.924	1.514	-0.024
22.001	112.878	80.010	19.993	103.910	19.923	1.542	0.005
22.501	112.923	80.011	19.993	103.917	19.923	1.598	0.033
23.000	112.912	80.009	19.994	103.924	19.921	1.715	0.039
23.500	112.943	80.010	19.994	103.928	19.923	1.586	0.027
24.001	112.987	80.009	19.996	103.932	19.923	1.568	0.048
24.501	112.991	80.011	19.994	103.938	19.919	1.881	0.061
25.001	113.023	80.010	19.993	103.938	19.919	1.883	0.042
25.500	113.000	80.009	19.995	103.940	19.916	2.100	0.023
26.000	113.056	80.010	19.993	103.944	19.914	2.256	0.021
26.500	113.130	80.009	19.994	103.944	19.916	2.067	0.082
27.000	113.146	80.012	19.994	103.945	19.914	2.248	0.110
27.501	113.188	80.010	19.994	103.951	19.914	2.254	0.074
28.001	113.222	80.010	19.993	103.956	19.911	2.469	0.067
28.501	113.244	80.009	19.994	103.961	19.912	2.362	0.066
29.000	113.314	80.011	19.995	103.971	19.912	2.356	0.074
29.500	113.319	80.010	19.993	103.978	19.910	2.511	0.084
30.000	113.357	80.010	19.994	103.980	19.911	2.465	0.059
30.501	113.384	80.009	19.995	103.983	19.909	2.623	0.054
31.000	113.485	80.009	19.995	103.984	19.910	2.547	0.096
31.500	113.522	80.010	19.995	103.983	19.908	2.691	0.133
32.000	113.567	80.010	19.995	103.981	19.905	2.918	0.110
32.500	113.609	80.010	19.994	103.983	19.905	2.908	0.084
33.000	113.685	80.010	19.993	103.986	19.904	2.954	0.103
33.500	113.756	80.010	19.993	103.989	19.903	3.024	0.132
34.000	113.790	80.010	19.994	103.993	19.906	2.847	0.126
34.500	113.836	80.009	19.995	104.000	19.901	3.185	0.093
35.000	113.916	80.010	19.994	104.006	19.900	3.233	0.103
35.500	113.954	80.010	19.994	104.009	19.900	3.269	0.122
36.000	113.977	80.012	19.993	104.011	19.900	3.237	0.089
36.500	114.087	80.010	19.994	104.014	19.898	3.387	0.097
37.000	114.161	80.010	19.995	104.015	19.898	3.419	0.159
37.500	114.293	80.008	19.995	104.020	19.898	3.446	0.196
38.001	114.328	80.009	19.995	104.025	19.899	3.354	0.186
38.500	114.393	80.010	19.994	104.026	19.901	3.221	0.133
39.000	114.474	80.012	19.995	104.030	19.899	3.374	0.123
39.501	114.532	80.010	19.995	104.032	19.896	3.554	0.143
40.000	114.597	80.007	19.995	104.029	19.894	3.684	0.131
40.500	114.715	80.008	19.995	104.028	19.895	3.622	0.153
41.000	114.787	80.010	19.995	104.033	19.895	3.618	0.187
41.500	114.907	80.007	19.995	104.035	19.895	3.644	0.191
42.000	114.978	80.010	19.997	104.040	19.898	3.425	0.191
42.500	115.069	80.010	19.995	104.045	19.895	3.606	0.177
43.000	115.179	80.009	19.996	104.048	19.894	3.704	0.182
43.500	115.222	80.009	19.995	104.051	19.895	3.648	0.177
44.000	115.334	80.008	19.995	104.053	19.895	3.658	0.154
44.500	115.445	80.010	19.995	104.051	19.895	3.606	0.189
45.000	115.545	80.008	19.995	104.051	19.897	3.482	0.217
45.500	115.633	80.009	19.994	104.047	19.897	3.461	0.200
46.001	115.736	80.009	19.996	104.047	19.894	3.730	0.190
46.501	115.829	80.008	19.995	104.047	19.894	3.692	0.193
47.001	115.954	80.008	19.994	104.050	19.895	3.626	0.206
47.500	116.053	80.009	19.994	104.050	19.895	3.602	0.221
48.000	116.145	80.010	19.994	104.048	19.893	3.799	0.208
48.500	116.254	80.009	19.994	104.041	19.891	3.919	0.196
49.000	116.367	80.010	19.994	104.034	19.892	3.883	0.212
49.500	116.466	80.008	19.994	104.032	19.894	3.722	0.217
50.000	116.622	80.011	19.994	104.033	19.895	3.666	0.234
50.501	116.722	80.011	19.992	104.039	19.895	3.656	0.256
51.000	116.824	80.009	19.993	104.046	19.890	4.004	0.229
51.500	116.940	80.011	19.993	104.054	19.893	3.815	0.209
52.000	117.099	80.010	19.994	104.053	19.892	3.837	0.246
52.500	117.209	80.010	19.993	104.054	19.895	3.656	0.272
53.000	117.343	80.012	19.993	104.054	19.895	3.668	0.257
53.500	117.489	80.011	19.992	104.054	19.892	3.823	0.262
54.000	117.630	80.011	19.993	104.052	19.891	3.905	0.284
54.500	117.755	80.011	19.993	104.054	19.892	3.881	0.277
55.000	117.871	80.011	19.993	104.055	19.894	3.730	0.253
55.500	118.026	80.012	19.992	104.053	19.892	3.873	0.256
56.000	118.186	80.010	19.993	104.051	19.894	3.672	0.293
56.500	118.303	80.013	19.993	104.052	19.896	3.524	0.296
57.000	118.433	80.011	19.993	104.053	19.896	3.580	0.262
57.501	118.556	80.011	19.993	104.047	19.895	3.654	0.250
58.000	118.684	80.011	19.993	104.045	19.894	3.726	0.252
58.500	118.852	80.011	19.994	104.046	19.893	3.773	0.273
59.001	119.002	80.012	19.992	104.047	19.893	3.751	0.307
59.501	119.119	80.012	19.993	104.044	19.894	3.718	0.292
60.001	119.282	80.011	19.993	104.048	19.895	3.658	0.273
60.500	119.423	80.012	19.992	104.049	19.894	3.684	0.292
61.000	119.567	80.012	19.993	104.047	19.895	3.668	0.295
61.500	119.694	80.013	19.991	104.041	19.891	3.909	0.278
62.000	119.853	80.011	19.993	104.043	19.897	3.508	0.278
62.500	119.996	80.011	19.992	104.043	19.893	3.787	0.294
63.001	120.125	80.011	19.994	104.045	19.896	3.588	0.287
63.502	120.292	80.011	19.992	104.047	19.893	3.784	0.284
64.001	120.447	80.011	19.993	104.052	19.893	3.781	0.309
64.500	120.599	80.012	19.993	104.052	19.894	3.726	0.315
65.001	120.729	80.010	19.992	104.053	19.898	3.425	0.294
65.501	120.909	80.011	19.994	104.051	19.895	3.666	0.296
66.001	121.093	80.012	19.993	104.049	19.896	3.580	0.337
66.501	121.203	80.010	19.994	104.046	19.892	3.833	0.329
67.001	121.383	80.010	19.994	104.047	19.895	3.654	0.292
67.501	121.511	80.011	19.993	104.046	19.891	3.891	0.299
68.001	121.716	80.011	19.992	104.047	19.894	3.743	0.320
68.500	121.836	80.011	19.993	104.045	19.897	3.472	0.328
69.000	122.038	80.010	19.993	104.047	19.893	3.800	0.323
69.501	122.197	80.010	19.993	104.046	19.892	3.858	0.341
70.001	122.310	80.010	19.993	104.048	19.896	3.593	0.316
70.500	122.492	80.012	19.993	104.050	19.892	3.855	0.284
71.000	122.662	80.010	19.994	104.053	19.896	3.552	0.324
71.500	122.833	80.012	19.994	104.050	19.895	3.654	0.347
72.000	123.001	80.011	19.993	104.051	19.891	3.909	0.340
72.501	123.139	80.011	19.994	104.050	19.891	3.933	0.323
73.001	123.321	80.011	19.992	104.048	19.892	3.871	0.313
73.500	123.548	80.011	19.993	104.047	19.892	3.885	0.364
74.001	123.656	80.011	19.993	104.051	19.889	4.059	0.372
74.501	123.842	80.012	19.993	104.052	19.891	3.907	0.315
75.001	124.033	80.011	19.993	104.051	19.895	3.670	0.336
75.501	124.137	80.011	19.994	104.052	19.891	3.923	0.336
76.001	124.342	80.012	19.992	104.049	19.896	3.538	0.302
76.501	124.513	80.012	19.994	104.046	19.894	3.737	0.343
77.001	124.686	80.011	19.993	104.046	19.891	3.942	0.360
77.501	124.874	80.011	19.993	104.046	19.891	3.938	0.352
78.001	125.013	80.011	19.993	104.040	19.890	3.976	0.344
78.501	125.220	80.011	19.993	104.039	19.890	3.981	0.336
79.001	125.373	80.011	19.993	104.036	19.890	3.995	0.353
79.500	125.550	80.012	19.994	104.030	19.890	4.031	0.345
80.000	125.756	80.012	19.993	104.025	19.892	3.875	0.357
80.500	125.915	80.012	19.993	104.030	19.893	3.758	0.374
81.001	126.113	80.012	19.994	104.033	19.891	3.913	0.361
81.501	126.299	80.012	19.994	104.037	19.890	3.985	0.371
82.001	126.445	80.012	19.994	104.044	19.892	3.839	0.358
82.501	126.677	80.014	19.992	104.049	19.893	3.803	0.355
83.001	126.822	80.012	19.992	104.051	19.897	3.492	0.377
83.501	127.004	80.011	19.993	104.050	19.892	3.849	0.352
84.001	127.214	80.014	19.993	104.051	19.892	3.849	0.359
84.500	127.350	80.013	19.995	104.051	19.893	3.762	0.369
85.001	127.533	80.013	19.993	104.051	19.891	3.905	0.333
85.501	127.732	80.013	19.993	104.051	19.890	3.967	0.351
86.001	127.930	80.014	19.993	104.050	19.893	3.754	0.390
86.502	128.080	80.014	19.992	104.051	19.893	3.803	0.373
87.001	128.297	80.014	19.993	104.043	19.893	3.770	0.357
87.501	128.475	80.013	19.992	104.038	19.891	3.943	0.381
88.001	128.638	80.014	19.993	104.035	19.891	3.953	0.368
88.501	128.841	80.012	19.993	104.037	19.891	3.953	0.353
89.001	129.072	80.014	19.993	104.037	19.893	3.770	0.400
89.501	129.221	80.013	19.993	104.044	19.891	3.937	0.407
90.001	129.447	80.013	19.993	104.050	19.892	3.827	0.378
90.501	129.633	80.013	19.993	104.052	19.891	3.945	0.394
91.001	129.803	80.013	19.993	104.053	19.891	3.911	0.384
91.501	129.951	80.013	19.994	104.052	19.891	3.909	0.337
92.000	130.152	80.011	19.994	104.053	19.893	3.785	0.334
92.501	130.353	80.012	19.992	104.051	19.888	4.146	0.375
93.001	130.555	80.011	19.994	104.050	19.891	3.949	0.403
93.501	130.742	80.011	19.993	104.051	19.891	3.941	0.397
94.001	130.917	80.011	19.992	104.051	19.891	3.921	0.375
94.500	131.157	80.010	19.994	104.051	19.891	3.939	0.388
95.000	131.296	80.011	19.994	104.054	19.891	3.957	0.397
95.501	131.552	80.010	19.994	104.053	19.892	3.837	0.387
96.001	131.758	80.010	19.994	104.052	19.889	4.106	0.428
96.501	131.968	80.010	19.993	104.051	19.891	3.951	0.439
97.001	132.144	80.010	19.993	104.051	19.894	3.678	0.401
97.501	132.376	80.010	19.993	104.050	19.894	3.682	0.397
98.001	132.579	80.010	19.993	104.051	19.893	3.794	0.422
98.500	132.733	80.010	19.993	104.052	19.893	3.762	0.397
99.001	132.934	80.011	19.993	104.053	19.892	3.839	0.356
99.501	133.135	80.009	19.993	104.053	19.895	3.662	0.379
100.001	133.309	80.009	19.994	104.053	19.892	3.847	0.388
100.501	133.567	80.011	19.993	104.053	19.895	3.664	0.404
101.001	133.765	80.010	19.995	104.053	19.892	3.827	0.444
101.501	133.956	80.011	19.994	104.053	19.891	3.923	0.422
102.000	134.114	80.011	19.994	104.052	19.888	4.140	0.368
102.500	134.340	80.010	19.993	104.052	19.890	4.031	0.366
103.000	134.523	80.010	19.994	104.051	19.889	4.071	0.397
103.500	134.758	80.010	19.994	104.051	19.893	3.772	0.413
104.000	134.966	80.010	19.994	104.051	19.889	4.065	0.431
104.500	135.139	80.011	19.995	104.052	19.889	4.084	0.413
105.001	135.354	80.010	19.994	104.054	19.891	3.903	0.385
105.501	135.594	80.010	19.993	104.054	19.891	3.895	0.421
106.001	135.740	80.011	19.993	104.053	19.890	3.971	0.420
106.501	135.977	80.010	19.994	104.051	19.892	3.887	0.385
107.000	136.197	80.009	19.993	104.051	19.892	3.857	0.420
107.501	136.424	80.011	19.993	104.050	19.890	3.975	0.452
108.001	136.545	80.010	19.995	104.051	19.889	4.061	0.397
108.501	136.819	80.011	19.994	104.053	19.890	4.035	0.372
109.001	137.013	80.010	19.994	104.054	19.891	3.911	0.431
109.501	137.224	80.009	19.994	104.054	19.891	3.955	0.436
110.000	137.478	80.011	19.995	104.052	19.890	4.007	0.435
110.500	137.639	80.010	19.994	104.050	19.891	3.947	0.440
111.000	137.890	80.011	19.994	104.046	19.889	4.041	0.414
111.500	138.128	80.010	19.993	104.045	19.892	3.881	0.450
112.000	138.344	80.010	19.993	104.045	19.891	3.905	0.471
112.501	138.564	80.010	19.993	104.048	19.891	3.941	0.445
113.001	138.753	80.011	19.994	104.051	19.894	3.692	0.423
113.501	138.991	80.011	19.994	104.054	19.890	4.013	0.418
114.001	139.189	80.011	19.993	104.052	19.890	3.967	0.431
114.501	139.400	80.011	19.993	104.051	19.891	3.947	0.423
115.000	139.608	80.010	19.994	104.050	19.892	3.841	0.414
115.500	139.837	80.010	19.993	104.049	19.889	4.055	0.428
116.000	140.061	80.010	19.994	104.050	19.891	3.919	0.445
116.501	140.276	80.011	19.993	104.053	19.890	3.981	0.446
117.002	140.505	80.012	19.994	104.055	19.891	3.891	0.442
117.501	140.680	80.010	19.994	104.056	19.888	4.113	0.424
118.000	140.905	80.010	19.993	104.057	19.890	3.971	0.402
118.500	141.128	80.009	19.993	104.057	19.891	3.915	0.424
119.000	141.360	80.012	19.993	104.057	19.889	4.089	0.451
119.501	141.570	80.011	19.993	104.057	19.891	3.919	0.449
120.001	141.824	80.010	19.995	104.057	19.889	4.047	0.453
120.501	142.045	80.010	19.993	104.057	19.894	3.736	0.470
121.001	142.283	80.011	19.993	104.054	19.890	3.995	0.467
121.500	142.463	80.009	19.994	104.053	19.888	4.168	0.438
122.000	142.708	80.009	19.993	104.054	19.890	3.984	0.422
122.500	142.928	80.009	19.993	104.054	19.891	3.960	0.445
123.000	143.171	80.010	19.994	104.054	19.890	3.987	0.464
123.501	143.409	80.009	19.993	104.056	19.888	4.144	0.473
124.001	143.624	80.010	19.993	104.053	19.893	3.801	0.467
124.500	143.852	80.009	19.993	104.051	19.894	3.724	0.448
125.001	144.083	80.010	19.993	104.048	19.891	3.901	0.451
125.501	144.344	80.009	19.993	104.049	19.890	4.037	0.475
126.001	144.572	80.010	19.993	104.051	19.890	4.005	0.491
126.501	144.788	80.010	19.994	104.054	19.890	3.979	0.467
127.001	145.006	80.011	19.992	104.056	19.891	3.911	0.439
127.501	145.293	80.010	19.994	104.058	19.891	3.911	0.469
128.001	145.518	80.010	19.994	104.059	19.893	3.805	0.508
128.500	145.775	80.009	19.995	104.060	19.892	3.847	0.497
129.000	145.975	80.010	19.994	104.059	19.890	3.988	0.469
129.501	146.191	80.010	19.994	104.059	19.890	3.964	0.437
130.001	146.433	80.009	19.995	104.059	19.891	3.946	0.437
130.500	146.659	80.009	19.993	104.058	19.892	3.843	0.464
131.001	146.883	80.008	19.994	104.055	19.895	3.604	0.459
131.501	147.137	80.009	19.995	104.051	19.893	3.797	0.463
132.000	147.362	80.009	19.997	104.049	19.896	3.538	0.479
132.500	147.576	80.008	19.994	104.045	19.892	3.855	0.460
133.001	147.830	80.009	19.995	104.042	19.893	3.783	0.454
133.501	148.074	80.009	19.995	104.039	19.893	3.765	0.483
134.000	148.283	80.009	19.996	104.044	19.891	3.929	0.475
134.500	148.540	80.010	19.994	104.043	19.894	3.676	0.459
135.001	148.773	80.009	19.995	104.045	19.889	4.076	0.478
135.501	149.023	80.009	19.994	104.049	19.894	3.737	0.487
136.000	149.260	80.008	19.996	104.052	19.889	4.058	0.485
136.500	149.523	80.010	19.995	104.051	19.890	4.012	0.493
137.000	149.744	80.010	19.994	104.049	19.891	3.950	0.492
137.501	149.977	80.010	19.994	104.047	19.892	3.837	0.469
138.001	150.216	80.011	19.995	104.045	19.891	3.950	0.463
138.501	150.501	80.010	19.994	104.045	19.888	4.174	0.498
139.000	150.688	80.009	19.995	104.043	19.889	4.038	0.498
139.501	150.938	80.011	19.995	104.044	19.892	3.831	0.455
140.001	151.170	80.011	19.995	104.041	19.889	4.094	0.460
140.501	151.405	80.011	19.994	104.039	19.894	3.713	0.474
141.001	151.655	80.010	19.994	104.037	19.894	3.727	0.476
141.501	151.897	80.012	19.995	104.040	19.891	3.926	0.488
142.000	152.170	80.011	19.994	104.039	19.890	3.986	0.504
142.500	152.399	80.010	19.994	104.043	19.893	3.815	0.509
143.000	152.604	80.010	19.993	104.044	19.888	4.167	0.468
143.501	152.843	80.011	19.994	104.042	19.890	3.992	0.439
144.001	153.120	80.012	19.996	104.042	19.890	4.016	0.480
144.501	153.362	80.012	19.995	104.045	19.890	4.008	0.517
145.001	153.620	80.012	19.995	104.046	19.890	4.020	0.509
145.501	153.811	80.013	19.995	104.046	19.892	3.870	0.474
146.001	154.044	80.013	19.995	104.042	19.891	3.940	0.437
146.501	154.302	80.011	19.994	104.035	19.891	3.920	0.458
147.001	154.542	80.012	19.994	104.032	19.893	3.804	0.495
147.501	154.757	80.012	19.995	104.030	19.893	3.752	0.477
148.000	155.013	80.011	19.993	104.026	19.889	4.079	0.463
148.501	155.259	80.012	19.994	104.032	19.891	3.900	0.486
149.001	155.478	80.011	19.993	104.038	19.893	3.788	0.483
149.501	155.692	80.011	19.993	104.041	19.892	3.842	0.449
150.001	155.944	80.011	19.993	104.043	19.892	3.852	0.449
150.500	156.164	80.012	19.994	104.047	19.890	4.018	0.469
151.001	156.403	80.011	19.994	104.044	19.890	4.006	0.465
151.501	156.654	80.011	19.992	104.044	19.892	3.852	0.475
152.001	156.912	80.011	19.994	104.040	19.892	3.868	0.500
152.501	157.183	80.010	19.994	104.037	19.889	4.052	0.519
153.001	157.400	80.010	19.994	104.037	19.891	3.906	0.508
153.501	157.661	80.012	19.993	104.036	19.891	3.914	0.483
154.001	157.906	80.012	19.992	104.031	19.893	3.806	0.492
154.501	158.133	80.011	19.993	104.030	19.892	3.844	0.489
155.001	158.375	80.012	19.993	104.027	19.891	3.946	0.471
155.501	158.608	80.011	19.993	104.025	19.893	3.755	0.472
156.001	158.881	80.012	19.994	104.025	19.893	3.789	0.490
156.501	159.056	80.012	19.993	104.024	19.894	3.715	0.477
157.001	159.312	80.012	19.993	104.023	19.894	3.729	0.440
157.500	159.583	80.010	19.993	104.024	19.892	3.878	0.479
158.000	159.829	80.011	19.992	104.021	19.892	3.850	0.522
158.500	160.035	80.009	19.993	104.020	19.893	3.770	0.485
159.000	160.301	80.011	19.993	104.020	19.891	3.952	0.462
159.500	160.566	80.011	19.993	104.019	19.891	3.924	0.502
160.001	160.766	80.013	19.993	104.021	19.891	3.950	0.498
160.501	161.063	80.012	19.993	104.021	19.890	4.015	0.481
161.001	161.246	80.012	19.994	104.021	19.893	3.784	0.488
161.501	161.529	80.012	19.993	104.022	19.893	3.762	0.472
162.001	161.744	80.011	19.994	104.023	19.890	4.008	0.482
162.501	162.005	80.012	19.993	104.022	19.890	4.002	0.487
163.000	162.243	80.011	19.994	104.024	19.893	3.744	0.488
163.501	162.460	80.012	19.994	104.024	19.891	3.902	0.477
164.001	162.736	80.012	19.993	104.023	19.889	4.095	0.474
164.500	162.974	80.012	19.994	104.021	19.889	4.043	0.503
165.000	163.195	80.012	19.993	104.022	19.893	3.798	0.487
165.500	163.426	80.013	19.992	104.020	19.893	3.808	0.455
166.001	163.691	80.012	19.992	104.022	19.890	4.018	0.474
166.501	163.976	80.013	19.993	104.028	19.894	3.709	0.524
167.001	164.192	80.012	19.993	104.026	19.895	3.659	0.526
167.501	164.448	80.014	19.993	104.024	19.892	3.864	0.486
168.000	164.709	80.013	19.993	104.025	19.889	4.071	0.494
168.500	164.925	80.013	19.993	104.023	19.892	3.820	0.497
169.000	165.225	80.013	19.993	104.018	19.888	4.177	0.496
169.500	165.432	80.012	19.992	104.020	19.888	4.131	0.512
170.000	165.671	80.012	19.993	104.020	19.890	3.966	0.477
170.500	165.980	80.013	19.993	104.019	19.887	4.185	0.497
171.001	166.182	80.012	19.993	104.019	19.891	3.944	0.529
171.501	166.415	80.013	19.993	104.018	19.890	3.996	0.473
172.000	166.646	80.013	19.993	104.018	19.892	3.870	0.450
172.500	166.889	80.013	19.993	104.020	19.893	3.808	0.469
