Sample ID:	C:\MCC\MCC Cal\Test\PLA_3D_Printer_Filament_MCC_30K_min_220217_R3.txt
Sample Weight (mg):	4.45
Heating Rate (C/s):	0.5
Combustor Temp (C):	900
N2 Flow Rate (cc/min):	80
O2 Flow Rate (cc/min):	20
Calibration File:	C:\MCC\MCC Cal\Coeff1 JN10440_30_210304.txt.txt
T Correction Coefficients:	0	1.024463	0
Time Shift (s):	14
*
Time (s)	Temperature (C)	N2 flow rate (cc/min)	O2 flow rate (cc/min)	Flow Rate (cc/min)	Oxygen (%)	HRR (W/g)	Heating rate (C/s)
0.000	112.725	80.005	19.994	103.700	19.980	-0.109	0.031
0.499	112.720	80.004	19.996	103.699	19.979	-0.082	0.022
1.000	112.742	80.004	19.996	103.698	19.979	-0.060	0.006
1.500	112.676	80.005	19.995	103.703	19.980	-0.137	-0.013
2.000	112.699	80.004	19.995	103.698	19.979	-0.062	-0.044
2.500	112.709	80.005	19.995	103.695	19.980	-0.094	-0.005
3.000	112.743	80.003	19.994	103.694	19.981	-0.207	0.038
3.499	112.736	80.005	19.996	103.693	19.979	-0.066	0.035
3.999	112.743	80.004	19.995	103.690	19.979	-0.060	0.014
4.499	112.684	80.006	19.996	103.695	19.981	-0.177	-0.026
4.999	112.705	80.004	19.995	103.698	19.977	0.062	-0.045
5.499	112.703	80.005	19.996	103.698	19.978	0.018	-0.009
5.999	112.715	80.004	19.996	103.701	19.974	0.332	0.015
6.499	112.721	80.004	19.995	103.705	19.977	0.119	0.014
6.999	112.705	80.004	19.995	103.706	19.975	0.215	0.004
7.499	112.692	80.004	19.994	103.715	19.975	0.227	-0.020
7.999	112.720	80.005	19.995	103.728	19.977	0.066	-0.007
8.499	112.726	80.004	19.995	103.738	19.976	0.181	0.025
8.999	112.755	80.005	19.995	103.742	19.974	0.348	0.035
9.499	112.746	80.004	19.995	103.746	19.973	0.372	0.027
9.999	112.800	80.005	19.995	103.750	19.973	0.417	0.032
10.499	112.757	80.006	19.994	103.751	19.973	0.356	0.028
10.999	112.779	80.006	19.994	103.753	19.972	0.479	-0.005
11.499	112.753	80.006	19.995	103.762	19.972	0.433	-0.013
11.999	112.799	80.006	19.995	103.772	19.968	0.773	0.008
12.499	112.810	80.006	19.994	103.779	19.967	0.799	0.038
12.999	112.814	80.006	19.994	103.786	19.966	0.934	0.036
13.499	112.845	80.005	19.993	103.794	19.967	0.809	0.025
13.999	112.818	80.005	19.994	103.806	19.963	1.083	0.020
14.499	112.845	80.006	19.994	103.822	19.961	1.278	0.002
14.999	112.895	80.006	19.994	103.836	19.960	1.326	0.038
15.499	112.922	80.007	19.994	103.844	19.959	1.429	0.077
15.999	112.887	80.007	19.994	103.849	19.960	1.336	0.035
16.499	112.926	80.008	19.994	103.850	19.954	1.743	-0.002
16.999	113.021	80.007	19.993	103.850	19.958	1.485	0.069
17.499	113.023	80.008	19.994	103.852	19.953	1.815	0.115
17.999	113.023	80.007	19.993	103.860	19.951	1.968	0.049
18.499	113.053	80.008	19.993	103.867	19.951	1.990	0.016
18.999	113.111	80.007	19.994	103.872	19.952	1.912	0.059
19.499	113.128	80.008	19.995	103.874	19.950	2.067	0.082
19.999	113.171	80.008	19.996	103.880	19.950	2.087	0.068
20.499	113.214	80.008	19.994	103.888	19.948	2.216	0.073
21.000	113.293	80.008	19.993	103.890	19.945	2.419	0.104
21.500	113.366	80.007	19.994	103.893	19.949	2.171	0.137
21.999	113.360	80.008	19.993	103.893	19.943	2.564	0.109
22.499	113.453	80.007	19.993	103.891	19.946	2.377	0.077
22.999	113.510	80.007	19.995	103.886	19.947	2.308	0.118
23.499	113.516	80.008	19.993	103.890	19.945	2.457	0.107
23.999	113.592	80.006	19.993	103.894	19.944	2.477	0.073
24.499	113.644	80.007	19.992	103.894	19.943	2.572	0.105
24.999	113.716	80.007	19.993	103.893	19.944	2.518	0.126
25.499	113.808	80.007	19.993	103.893	19.943	2.598	0.144
25.999	113.850	80.007	19.993	103.888	19.944	2.488	0.150
26.499	113.912	80.005	19.993	103.883	19.945	2.422	0.120
26.999	113.982	80.006	19.995	103.887	19.943	2.599	0.118
27.499	114.086	80.004	19.995	103.887	19.943	2.571	0.153
27.999	114.090	80.004	19.994	103.886	19.945	2.396	0.141
28.499	114.193	80.004	19.994	103.887	19.944	2.529	0.107
28.999	114.284	80.005	19.995	103.884	19.944	2.521	0.150
29.499	114.314	80.006	19.993	103.882	19.945	2.440	0.157
29.999	114.421	80.006	19.994	103.885	19.944	2.478	0.129
30.499	114.532	80.004	19.994	103.884	19.945	2.406	0.177
30.999	114.619	80.004	19.993	103.887	19.945	2.464	0.209
31.499	114.700	80.005	19.995	103.894	19.945	2.438	0.183
32.000	114.757	80.005	19.994	103.899	19.944	2.525	0.153
32.500	114.856	80.006	19.994	103.900	19.942	2.643	0.147
32.999	114.959	80.004	19.994	103.904	19.942	2.677	0.179
33.499	114.993	80.005	19.994	103.904	19.943	2.546	0.169
33.999	115.131	80.004	19.995	103.900	19.939	2.874	0.154
34.499	115.191	80.005	19.994	103.896	19.941	2.750	0.185
34.999	115.250	80.005	19.994	103.896	19.940	2.812	0.159
35.499	115.381	80.004	19.995	103.897	19.942	2.669	0.154
35.999	115.517	80.004	19.994	103.900	19.936	3.058	0.229
36.499	115.585	80.006	19.994	103.909	19.938	2.931	0.235
36.999	115.659	80.004	19.994	103.919	19.936	3.058	0.173
37.499	115.745	80.005	19.994	103.922	19.938	2.959	0.151
37.999	115.894	80.004	19.994	103.927	19.937	2.995	0.198
38.499	115.962	80.004	19.994	103.932	19.935	3.164	0.226
38.999	116.058	80.004	19.992	103.934	19.936	3.074	0.190
39.499	116.235	80.006	19.994	103.936	19.935	3.187	0.218
39.999	116.287	80.006	19.994	103.936	19.935	3.128	0.251
40.499	116.441	80.004	19.994	103.935	19.935	3.136	0.218
40.999	116.510	80.006	19.993	103.938	19.938	2.919	0.214
41.499	116.684	80.005	19.992	103.941	19.937	3.003	0.233
41.999	116.761	80.005	19.994	103.940	19.933	3.319	0.247
42.499	116.884	80.005	19.994	103.942	19.935	3.148	0.225
42.999	117.015	80.005	19.993	103.941	19.934	3.219	0.226
43.499	117.143	80.005	19.994	103.937	19.935	3.150	0.256
43.999	117.285	80.006	19.994	103.932	19.935	3.144	0.265
44.500	117.422	80.005	19.995	103.926	19.936	3.064	0.275
45.000	117.503	80.005	19.994	103.921	19.936	3.076	0.249
45.499	117.640	80.005	19.994	103.926	19.937	2.994	0.218
45.999	117.772	80.005	19.994	103.928	19.936	3.074	0.243
46.499	117.922	80.005	19.994	103.928	19.934	3.205	0.276
46.999	118.051	80.005	19.994	103.927	19.935	3.125	0.280
47.499	118.145	80.004	19.994	103.929	19.934	3.217	0.251
47.999	118.305	80.005	19.995	103.923	19.934	3.197	0.238
48.499	118.410	80.005	19.994	103.919	19.937	3.042	0.260
48.999	118.579	80.005	19.994	103.919	19.936	3.088	0.270
49.499	118.723	80.005	19.994	103.923	19.937	3.004	0.294
49.999	118.854	80.005	19.994	103.926	19.935	3.177	0.294
50.500	118.974	80.004	19.994	103.927	19.936	3.054	0.263
51.000	119.122	80.005	19.993	103.926	19.934	3.211	0.260
51.499	119.280	80.005	19.994	103.925	19.934	3.238	0.287
51.999	119.435	80.005	19.993	103.926	19.937	3.046	0.309
52.499	119.539	80.004	19.994	103.922	19.936	3.103	0.286
52.999	119.724	80.007	19.993	103.921	19.934	3.264	0.274
53.499	119.812	80.005	19.993	103.921	19.933	3.284	0.282
53.999	119.958	80.003	19.994	103.924	19.934	3.214	0.254
54.499	120.157	80.005	19.993	103.922	19.934	3.266	0.289
54.999	120.294	80.005	19.995	103.921	19.936	3.093	0.341
55.499	120.446	80.004	19.994	103.926	19.936	3.068	0.312
56.000	120.609	80.005	19.995	103.933	19.935	3.151	0.302
56.500	120.779	80.004	19.994	103.937	19.934	3.244	0.324
56.999	120.914	80.005	19.994	103.940	19.935	3.189	0.319
57.499	121.079	80.005	19.994	103.942	19.935	3.145	0.302
57.999	121.198	80.005	19.993	103.936	19.934	3.200	0.292
58.499	121.379	80.004	19.994	103.931	19.934	3.197	0.292
58.999	121.599	80.003	19.993	103.924	19.936	3.053	0.350
59.499	121.715	80.005	19.993	103.923	19.933	3.288	0.369
59.999	121.890	80.005	19.993	103.928	19.933	3.304	0.314
60.499	122.027	80.004	19.994	103.935	19.933	3.338	0.301
60.999	122.203	80.004	19.995	103.941	19.933	3.334	0.312
61.499	122.379	80.004	19.995	103.943	19.934	3.248	0.332
61.999	122.537	80.005	19.995	103.945	19.931	3.463	0.343
62.499	122.656	80.003	19.994	103.945	19.932	3.399	0.306
62.999	122.841	80.004	19.994	103.945	19.933	3.296	0.290
63.499	122.984	80.004	19.995	103.946	19.934	3.209	0.316
63.999	123.199	80.004	19.994	103.951	19.934	3.244	0.343
64.499	123.345	80.003	19.995	103.953	19.934	3.246	0.359
64.999	123.546	80.004	19.994	103.952	19.932	3.383	0.354
65.500	123.685	80.005	19.994	103.949	19.930	3.542	0.344
66.000	123.874	80.004	19.994	103.947	19.929	3.564	0.334
66.499	124.038	80.004	19.995	103.948	19.931	3.481	0.340
66.999	124.206	80.004	19.994	103.947	19.936	3.115	0.343
67.499	124.390	80.004	19.995	103.949	19.931	3.475	0.342
67.999	124.586	80.003	19.994	103.952	19.931	3.435	0.366
68.499	124.773	80.004	19.994	103.953	19.929	3.584	0.381
68.999	124.935	80.004	19.994	103.953	19.931	3.439	0.366
69.499	125.111	80.005	19.994	103.953	19.930	3.518	0.344
69.999	125.278	80.004	19.994	103.953	19.930	3.528	0.341
70.499	125.475	80.005	19.995	103.954	19.931	3.421	0.353
70.999	125.623	80.004	19.994	103.953	19.931	3.429	0.354
71.499	125.819	80.005	19.994	103.950	19.931	3.455	0.344
71.999	126.029	80.005	19.994	103.947	19.931	3.421	0.375
72.499	126.200	80.005	19.994	103.944	19.929	3.566	0.394
72.999	126.362	80.005	19.994	103.943	19.932	3.409	0.357
73.499	126.565	80.004	19.994	103.944	19.931	3.461	0.349
73.999	126.742	80.006	19.994	103.947	19.930	3.497	0.373
74.499	126.930	80.005	19.994	103.947	19.932	3.395	0.373
74.999	127.128	80.005	19.994	103.950	19.929	3.586	0.375
75.499	127.315	80.006	19.993	103.950	19.930	3.532	0.385
75.999	127.461	80.005	19.995	103.950	19.932	3.399	0.359
76.499	127.645	80.006	19.994	103.950	19.933	3.334	0.332
76.999	127.853	80.006	19.994	103.954	19.928	3.657	0.361
77.499	128.036	80.005	19.994	103.954	19.931	3.437	0.392
77.999	128.218	80.006	19.994	103.954	19.928	3.649	0.378
78.499	128.435	80.004	19.993	103.953	19.930	3.522	0.382
78.999	128.632	80.005	19.994	103.952	19.930	3.504	0.406
79.499	128.822	80.006	19.996	103.952	19.931	3.467	0.401
79.999	129.036	80.008	19.995	103.952	19.932	3.355	0.396
80.499	129.210	80.006	19.994	103.952	19.932	3.377	0.396
80.999	129.401	80.005	19.994	103.952	19.930	3.534	0.376
81.499	129.588	80.005	19.994	103.953	19.928	3.637	0.371
81.999	129.834	80.005	19.995	103.952	19.932	3.361	0.406
82.499	130.026	80.006	19.994	103.952	19.932	3.365	0.436
82.999	130.220	80.006	19.994	103.952	19.929	3.560	0.412
83.500	130.410	80.006	19.995	103.951	19.933	3.317	0.385
84.000	130.615	80.007	19.994	103.950	19.929	3.576	0.390
84.499	130.807	80.006	19.995	103.950	19.932	3.367	0.396
84.999	130.993	80.006	19.995	103.951	19.930	3.510	0.387
85.500	131.229	80.005	19.994	103.950	19.931	3.479	0.400
86.000	131.405	80.006	19.994	103.952	19.930	3.516	0.417
86.499	131.610	80.006	19.994	103.954	19.930	3.552	0.397
86.999	131.824	80.005	19.995	103.954	19.932	3.403	0.400
87.499	132.041	80.005	19.993	103.953	19.931	3.452	0.425
87.999	132.250	80.004	19.994	103.953	19.930	3.530	0.429
88.499	132.494	80.006	19.995	103.952	19.928	3.659	0.440
88.999	132.655	80.006	19.994	103.953	19.929	3.586	0.429
89.499	132.873	80.005	19.994	103.952	19.928	3.687	0.392
89.999	133.049	80.006	19.994	103.952	19.928	3.655	0.386
90.499	133.272	80.006	19.995	103.953	19.929	3.625	0.397
90.999	133.517	80.006	19.995	103.953	19.927	3.706	0.433
91.499	133.698	80.006	19.995	103.952	19.932	3.402	0.447
91.999	133.926	80.006	19.994	103.959	19.927	3.718	0.418
92.499	134.152	80.005	19.994	103.961	19.928	3.660	0.432
92.999	134.333	80.006	19.996	103.963	19.928	3.681	0.430
93.499	134.549	80.005	19.993	103.963	19.927	3.716	0.402
93.999	134.831	80.007	19.995	103.964	19.928	3.639	0.448
94.500	134.984	80.006	19.995	103.959	19.929	3.600	0.466
95.000	135.197	80.006	19.994	103.957	19.929	3.604	0.400
95.499	135.426	80.007	19.995	103.954	19.929	3.588	0.404
95.999	135.625	80.006	19.995	103.954	19.927	3.735	0.435
96.499	135.854	80.005	19.995	103.955	19.924	3.945	0.428
96.999	136.092	80.006	19.995	103.958	19.929	3.588	0.447
97.499	136.296	80.007	19.994	103.962	19.927	3.713	0.454
97.999	136.558	80.008	19.996	103.967	19.929	3.576	0.454
98.499	136.784	80.006	19.994	103.968	19.931	3.449	0.477
98.999	136.945	80.007	19.995	103.965	19.926	3.796	0.438
99.499	137.175	80.007	19.995	103.960	19.928	3.665	0.389
99.999	137.421	80.007	19.994	103.958	19.932	3.405	0.434
100.499	137.614	80.008	19.995	103.954	19.930	3.556	0.457
100.999	137.819	80.009	19.995	103.961	19.928	3.665	0.418
101.499	138.082	80.007	19.994	103.967	19.930	3.536	0.433
101.999	138.298	80.007	19.994	103.972	19.929	3.572	0.474
102.499	138.498	80.008	19.994	103.976	19.930	3.544	0.448
102.999	138.734	80.008	19.993	103.982	19.928	3.677	0.426
103.499	138.974	80.008	19.995	103.980	19.929	3.582	0.456
103.999	139.207	80.007	19.994	103.973	19.930	3.510	0.474
104.499	139.355	80.006	19.994	103.968	19.928	3.650	0.427
104.999	139.611	80.008	19.996	103.961	19.932	3.395	0.392
105.499	139.857	80.006	19.994	103.956	19.931	3.413	0.453
105.999	140.096	80.006	19.994	103.953	19.930	3.491	0.494
106.499	140.341	80.007	19.994	103.955	19.932	3.375	0.484
106.999	140.531	80.006	19.995	103.955	19.929	3.606	0.459
107.499	140.738	80.006	19.993	103.955	19.928	3.655	0.416
107.999	141.016	80.004	19.995	103.953	19.928	3.669	0.441
108.499	141.233	80.005	19.996	103.953	19.932	3.348	0.490
108.999	141.423	80.006	19.993	103.952	19.931	3.483	0.451
109.499	141.639	80.005	19.995	103.953	19.932	3.388	0.406
109.999	141.896	80.005	19.994	103.953	19.930	3.497	0.440
110.499	142.136	80.004	19.994	103.953	19.931	3.413	0.485
110.999	142.361	80.004	19.995	103.951	19.926	3.831	0.481
111.499	142.596	80.005	19.993	103.952	19.930	3.493	0.462
111.999	142.846	80.005	19.995	103.954	19.928	3.670	0.473
112.499	143.139	80.005	19.993	103.954	19.927	3.712	0.514
112.999	143.338	80.004	19.993	103.955	19.926	3.845	0.517
113.499	143.557	80.004	19.993	103.955	19.926	3.811	0.455
113.999	143.801	80.005	19.993	103.954	19.923	4.027	0.441
114.499	144.064	80.005	19.993	103.951	19.926	3.828	0.485
114.999	144.292	80.006	19.994	103.951	19.927	3.753	0.498
115.499	144.515	80.004	19.993	103.950	19.928	3.667	0.471
115.999	144.788	80.005	19.994	103.950	19.926	3.812	0.474
116.499	145.014	80.003	19.994	103.950	19.927	3.741	0.498
116.999	145.212	80.005	19.993	103.951	19.925	3.866	0.462
117.499	145.434	80.004	19.992	103.952	19.928	3.697	0.422
117.999	145.684	80.005	19.994	103.952	19.926	3.820	0.446
118.499	145.929	80.005	19.993	103.952	19.929	3.598	0.483
118.999	146.156	80.004	19.993	103.951	19.925	3.860	0.483
119.499	146.460	80.004	19.994	103.947	19.927	3.743	0.502
119.999	146.653	80.005	19.993	103.942	19.928	3.669	0.514
120.501	146.887	80.004	19.993	103.938	19.929	3.618	0.462
121.001	147.107	80.005	19.993	103.939	19.927	3.741	0.441
121.500	147.353	80.005	19.994	103.939	19.928	3.672	0.461
122.000	147.571	80.006	19.994	103.942	19.925	3.868	0.465
122.499	147.852	80.003	19.994	103.941	19.929	3.612	0.481
122.999	148.103	80.004	19.994	103.940	19.930	3.540	0.515
123.499	148.322	80.004	19.993	103.937	19.930	3.485	0.501
124.000	148.583	80.005	19.993	103.938	19.930	3.505	0.476
124.500	148.795	80.005	19.994	103.940	19.930	3.511	0.476
125.000	149.034	80.005	19.993	103.945	19.927	3.731	0.461
125.501	149.274	80.005	19.994	103.950	19.930	3.556	0.465
126.000	149.489	80.005	19.994	103.953	19.929	3.600	0.467
126.499	149.748	80.007	19.995	103.953	19.928	3.658	0.465
126.999	149.977	80.005	19.994	103.953	19.929	3.588	0.481
127.499	150.228	80.006	19.994	103.953	19.931	3.483	0.484
127.999	150.505	80.004	19.994	103.952	19.931	3.435	0.504
128.500	150.715	80.004	19.994	103.952	19.931	3.459	0.507
129.000	150.933	80.006	19.995	103.952	19.929	3.600	0.458
129.500	151.258	80.004	19.994	103.952	19.929	3.592	0.486
130.000	151.492	80.005	19.994	103.952	19.931	3.425	0.551
130.500	151.703	80.005	19.994	103.953	19.932	3.346	0.502
131.000	151.992	80.004	19.995	103.950	19.930	3.506	0.473
131.500	152.265	80.004	19.994	103.950	19.928	3.673	0.531
132.000	152.452	80.005	19.994	103.949	19.928	3.650	0.511
132.500	152.681	80.006	19.994	103.947	19.929	3.604	0.438
133.000	152.912	80.005	19.994	103.945	19.934	3.257	0.438
133.500	153.213	80.006	19.995	103.948	19.931	3.433	0.496
134.000	153.428	80.004	19.994	103.947	19.931	3.443	0.524
134.500	153.697	80.006	19.994	103.947	19.928	3.668	0.500
135.000	153.941	80.005	19.994	103.949	19.932	3.387	0.498
135.500	154.161	80.005	19.993	103.949	19.929	3.620	0.489
136.000	154.446	80.006	19.994	103.948	19.930	3.526	0.485
136.500	154.673	80.005	19.995	103.950	19.929	3.610	0.509
137.000	154.959	80.006	19.993	103.949	19.931	3.473	0.512
137.500	155.218	80.006	19.993	103.948	19.931	3.451	0.529
138.000	155.417	80.004	19.994	103.945	19.929	3.618	0.501
138.500	155.634	80.004	19.992	103.946	19.927	3.767	0.437
139.000	155.953	80.004	19.994	103.946	19.925	3.884	0.476
139.500	156.147	80.005	19.995	103.947	19.928	3.676	0.525
140.000	156.363	80.004	19.995	103.949	19.930	3.493	0.461
140.500	156.651	80.005	19.995	103.954	19.928	3.682	0.457
141.000	156.884	80.004	19.994	103.953	19.929	3.624	0.513
141.500	157.101	80.006	19.994	103.952	19.929	3.560	0.486
142.000	157.341	80.005	19.994	103.952	19.930	3.497	0.454
142.500	157.625	80.005	19.994	103.948	19.928	3.644	0.490
143.000	157.865	80.006	19.994	103.944	19.931	3.449	0.524
143.500	158.114	80.006	19.994	103.941	19.930	3.518	0.507
144.000	158.343	80.005	19.994	103.940	19.929	3.594	0.484
144.500	158.588	80.005	19.995	103.940	19.928	3.658	0.476
145.000	158.885	80.006	19.994	103.942	19.930	3.557	0.508
145.500	159.172	80.006	19.994	103.944	19.929	3.599	0.563
146.000	159.340	80.006	19.994	103.949	19.929	3.619	0.520
146.500	159.590	80.005	19.995	103.950	19.929	3.623	0.437
147.000	159.803	80.006	19.994	103.950	19.929	3.579	0.441
147.500	160.076	80.006	19.994	103.951	19.928	3.648	0.474
148.000	160.358	80.005	19.993	103.952	19.930	3.509	0.520
148.500	160.571	80.006	19.994	103.952	19.928	3.656	0.525
149.000	160.793	80.007	19.994	103.947	19.930	3.557	0.465
149.500	161.067	80.005	19.995	103.943	19.925	3.857	0.465
150.000	161.335	80.006	19.994	103.943	19.928	3.649	0.519
150.500	161.619	80.005	19.993	103.943	19.931	3.468	0.547
151.000	161.817	80.005	19.992	103.941	19.930	3.540	0.517
151.500	162.054	80.006	19.994	103.944	19.927	3.746	0.458
152.000	162.312	80.005	19.993	103.949	19.927	3.740	0.465
152.500	162.515	80.006	19.993	103.949	19.930	3.526	0.478
153.000	162.771	80.006	19.994	103.950	19.928	3.635	0.460
153.500	163.022	80.006	19.994	103.952	19.929	3.581	0.483
154.000	163.271	80.007	19.993	103.952	19.931	3.458	0.504
154.500	163.524	80.007	19.994	103.950	19.931	3.450	0.501
155.000	163.835	80.006	19.994	103.946	19.932	3.372	0.533
155.500	164.022	80.006	19.994	103.938	19.931	3.482	0.531
156.000	164.292	80.006	19.994	103.932	19.929	3.601	0.477
156.500	164.551	80.008	19.994	103.927	19.929	3.581	0.493
157.000	164.794	80.006	19.993	103.921	19.931	3.426	0.515
157.500	165.026	80.005	19.994	103.918	19.932	3.348	0.489
158.000	165.289	80.006	19.993	103.920	19.933	3.295	0.485
158.500	165.549	80.006	19.994	103.923	19.934	3.259	0.509
159.000	165.807	80.006	19.994	103.923	19.930	3.496	0.520
159.500	166.051	80.006	19.994	103.922	19.932	3.362	0.510
160.000	166.287	80.006	19.994	103.922	19.930	3.492	0.491
160.500	166.526	80.006	19.995	103.920	19.932	3.380	0.477
161.000	166.747	80.006	19.993	103.915	19.934	3.243	0.468
161.500	166.995	80.006	19.994	103.913	19.933	3.323	0.465
162.000	167.275	80.007	19.994	103.912	19.929	3.559	0.499
162.500	167.509	80.007	19.994	103.912	19.932	3.370	0.521
163.000	167.713	80.005	19.995	103.912	19.930	3.545	0.476
163.500	168.014	80.006	19.995	103.913	19.931	3.441	0.472
164.000	168.230	80.005	19.995	103.916	19.932	3.368	0.511
164.500	168.479	80.007	19.995	103.917	19.932	3.401	0.491
165.000	168.748	80.006	19.994	103.918	19.930	3.491	0.491
165.500	168.988	80.006	19.995	103.918	19.932	3.389	0.514
166.000	169.264	80.005	19.994	103.917	19.932	3.401	0.513
166.500	169.523	80.006	19.994	103.914	19.932	3.385	0.526
167.000	169.761	80.005	19.995	103.920	19.933	3.308	0.516
167.500	170.003	80.006	19.996	103.921	19.930	3.524	0.488
168.000	170.252	80.006	19.995	103.923	19.928	3.673	0.486
168.500	170.479	80.005	19.994	103.925	19.931	3.435	0.484
169.000	170.760	80.005	19.995	103.924	19.930	3.527	0.492
169.500	171.000	80.005	19.995	103.918	19.929	3.577	0.514
170.000	171.242	80.005	19.995	103.920	19.930	3.533	0.502
170.500	171.497	80.005	19.993	103.919	19.928	3.636	0.490
171.000	171.747	80.004	19.995	103.920	19.930	3.501	0.501
171.500	172.002	80.006	19.993	103.921	19.934	3.231	0.504
172.000	172.243	80.005	19.995	103.926	19.933	3.338	0.500
172.500	172.486	80.007	19.995	103.925	19.928	3.660	0.490
