Sample ID:	C:\MCC\MCC Cal\Test\Rubber_Band_MCC_30K_min_220208_R3.txt
Sample Weight (mg):	4.35
Heating Rate (C/s):	0.5
Combustor Temp (C):	900
N2 Flow Rate (cc/min):	80
O2 Flow Rate (cc/min):	20
Calibration File:	C:\MCC\MCC Cal\Coeff1 JN10440_30_210304.txt.txt
T Correction Coefficients:	0	1.024463	0
Time Shift (s):	14
*
Time (s)	Temperature (C)	N2 flow rate (cc/min)	O2 flow rate (cc/min)	Flow Rate (cc/min)	Oxygen (%)	HRR (W/g)	Heating rate (C/s)
0.000	115.339	80.003	19.994	103.640	19.970	0.101	-0.008
0.499	115.347	80.002	19.992	103.638	19.972	-0.071	-0.025
1.000	115.350	80.003	19.998	103.638	19.971	0.028	-0.012
1.500	115.362	80.003	19.997	103.644	19.970	0.138	0.013
2.000	115.349	80.002	19.996	103.651	19.972	-0.057	0.007
2.500	115.320	80.005	19.998	103.658	19.973	-0.115	-0.021
3.000	115.328	80.002	19.995	103.666	19.969	0.200	-0.031
3.500	115.350	80.003	19.994	103.667	19.974	-0.170	0.005
4.000	115.351	80.003	19.997	103.664	19.971	0.026	0.027
4.500	115.347	80.003	19.997	103.659	19.971	0.024	0.010
5.000	115.333	80.004	19.995	103.655	19.970	0.069	-0.011
5.500	115.369	80.003	19.995	103.650	19.970	0.071	0.002
6.000	115.340	80.004	19.994	103.647	19.968	0.277	0.014
6.500	115.345	80.004	19.994	103.646	19.970	0.087	-0.008
7.000	115.336	80.004	19.994	103.645	19.969	0.215	-0.013
7.500	115.363	80.004	19.994	103.643	19.973	-0.097	0.007
8.000	115.369	80.004	19.992	103.643	19.970	0.122	0.025
8.500	115.334	80.006	19.993	103.643	19.971	0.043	0.002
9.000	115.337	80.004	19.993	103.641	19.969	0.144	-0.030
9.500	115.359	80.006	19.993	103.640	19.972	-0.038	-0.003
10.000	115.326	80.004	19.993	103.641	19.973	-0.154	0.007
10.500	115.333	80.006	19.993	103.643	19.970	0.107	-0.018
11.000	115.344	80.005	19.993	103.647	19.970	0.095	-0.004
11.500	115.356	80.006	19.993	103.648	19.970	0.120	0.020
12.000	115.345	80.007	19.992	103.650	19.967	0.290	0.012
12.500	115.366	80.005	19.993	103.651	19.970	0.077	0.005
13.000	115.326	80.005	19.993	103.650	19.968	0.233	-0.005
13.500	115.363	80.006	19.993	103.650	19.966	0.403	-0.011
14.000	115.329	80.005	19.992	103.654	19.966	0.393	0.000
14.500	115.386	80.007	19.992	103.656	19.965	0.510	0.013
15.000	115.319	80.006	19.992	103.657	19.964	0.519	0.006
15.500	115.327	80.008	19.993	103.657	19.964	0.531	-0.034
16.000	115.357	80.005	19.992	103.653	19.960	0.828	-0.011
16.500	115.285	80.006	19.993	103.654	19.963	0.591	-0.002
17.000	115.319	80.008	19.994	103.656	19.960	0.820	-0.040
17.500	115.341	80.007	19.994	103.660	19.958	0.972	0.009
18.000	115.315	80.006	19.992	103.664	19.961	0.766	0.026
18.500	115.323	80.007	19.993	103.670	19.961	0.780	-0.011
19.000	115.339	80.007	19.993	103.674	19.960	0.873	0.003
19.500	115.353	80.007	19.992	103.679	19.958	0.962	0.027
20.000	115.315	80.006	19.993	103.684	19.958	1.027	0.003
20.500	115.328	80.007	19.993	103.687	19.960	0.875	-0.024
21.000	115.347	80.007	19.994	103.690	19.957	1.056	0.004
21.500	115.321	80.006	19.993	103.688	19.954	1.275	0.012
22.000	115.310	80.005	19.994	103.684	19.960	0.857	-0.023
22.500	115.296	80.005	19.993	103.678	19.956	1.123	-0.031
23.000	115.338	80.005	19.993	103.675	19.963	0.651	0.002
23.500	115.353	80.005	19.994	103.672	19.959	0.918	0.043
24.000	115.359	80.006	19.994	103.671	19.960	0.829	0.039
24.500	115.350	80.006	19.993	103.671	19.962	0.722	0.009
25.000	115.426	80.007	19.993	103.671	19.960	0.827	0.032
25.500	115.382	80.005	19.993	103.672	19.957	1.075	0.050
26.000	115.345	80.006	19.993	103.677	19.958	1.022	-0.025
26.500	115.401	80.006	19.992	103.683	19.960	0.878	-0.031
27.000	115.390	80.006	19.992	103.686	19.959	0.905	0.032
27.500	115.431	80.005	19.993	103.687	19.960	0.832	0.037
28.000	115.411	80.005	19.992	103.691	19.957	1.047	0.025
28.500	115.413	80.008	19.993	103.688	19.955	1.193	0.001
29.000	115.431	80.006	19.994	103.686	19.956	1.177	0.001
29.500	115.458	80.007	19.994	103.688	19.953	1.367	0.033
30.000	115.446	80.006	19.993	103.695	19.955	1.223	0.030
30.500	115.467	80.008	19.993	103.698	19.953	1.347	0.012
31.000	115.460	80.006	19.993	103.703	19.954	1.260	0.012
31.500	115.468	80.007	19.993	103.708	19.953	1.369	0.008
32.000	115.481	80.006	19.993	103.714	19.950	1.574	0.011
32.499	115.494	80.006	19.993	103.720	19.953	1.349	0.023
32.999	115.498	80.006	19.993	103.728	19.948	1.733	0.021
33.499	115.520	80.006	19.992	103.738	19.947	1.806	0.021
33.999	115.577	80.007	19.994	103.751	19.948	1.773	0.053
34.499	115.570	80.006	19.993	103.763	19.945	1.936	0.065
34.999	115.574	80.006	19.993	103.775	19.946	1.905	0.024
35.499	115.645	80.006	19.993	103.790	19.941	2.283	0.036
36.000	115.673	80.007	19.993	103.804	19.944	2.029	0.087
36.500	115.705	80.006	19.994	103.813	19.939	2.398	0.080
36.999	115.727	80.008	19.994	103.822	19.942	2.179	0.057
37.499	115.775	80.007	19.993	103.828	19.942	2.204	0.062
37.999	115.811	80.008	19.993	103.829	19.936	2.626	0.077
38.499	115.876	80.007	19.993	103.830	19.937	2.581	0.092
38.999	115.888	80.007	19.991	103.831	19.934	2.786	0.089
39.499	115.973	80.008	19.993	103.834	19.935	2.691	0.087
39.999	115.971	80.007	19.993	103.837	19.936	2.612	0.090
40.499	116.053	80.007	19.994	103.839	19.933	2.835	0.081
40.999	116.082	80.007	19.992	103.844	19.931	3.003	0.095
41.499	116.136	80.008	19.993	103.850	19.930	3.054	0.097
41.999	116.215	80.008	19.993	103.852	19.930	3.056	0.108
42.499	116.277	80.007	19.992	103.853	19.931	2.983	0.137
42.999	116.330	80.007	19.992	103.856	19.935	2.725	0.128
43.499	116.390	80.006	19.993	103.857	19.932	2.933	0.114
43.999	116.449	80.007	19.992	103.857	19.930	3.081	0.116
44.500	116.509	80.007	19.992	103.859	19.933	2.825	0.119
45.000	116.549	80.006	19.993	103.861	19.930	3.089	0.109
45.499	116.618	80.006	19.993	103.863	19.926	3.373	0.104
45.999	116.702	80.007	19.992	103.863	19.926	3.347	0.132
46.499	116.795	80.007	19.993	103.863	19.926	3.388	0.165
47.000	116.886	80.005	19.992	103.864	19.923	3.595	0.180
47.500	116.972	80.005	19.992	103.864	19.924	3.516	0.180
47.999	117.050	80.004	19.993	103.865	19.928	3.266	0.171
48.499	117.100	80.005	19.993	103.865	19.923	3.642	0.146
48.999	117.212	80.005	19.992	103.867	19.926	3.394	0.145
49.499	117.301	80.006	19.993	103.867	19.924	3.561	0.181
49.999	117.380	80.005	19.994	103.867	19.926	3.382	0.184
50.499	117.479	80.005	19.993	103.867	19.919	3.916	0.173
50.999	117.575	80.005	19.993	103.868	19.924	3.548	0.187
51.499	117.656	80.005	19.993	103.867	19.925	3.451	0.186
51.999	117.754	80.005	19.992	103.868	19.926	3.362	0.178
52.499	117.831	80.004	19.994	103.872	19.922	3.682	0.177
52.999	117.928	80.004	19.995	103.873	19.921	3.778	0.175
53.499	118.020	80.005	19.994	103.878	19.923	3.634	0.182
54.000	118.138	80.005	19.994	103.880	19.925	3.477	0.200
54.501	118.262	80.004	19.993	103.882	19.922	3.703	0.226
55.000	118.370	80.005	19.993	103.884	19.922	3.650	0.236
55.499	118.472	80.005	19.993	103.890	19.921	3.772	0.221
55.999	118.576	80.004	19.994	103.893	19.918	3.992	0.208
56.499	118.704	80.003	19.992	103.898	19.918	3.972	0.219
56.999	118.791	80.005	19.994	103.904	19.923	3.635	0.223
57.499	118.912	80.005	19.994	103.907	19.920	3.795	0.212
57.999	119.050	80.005	19.994	103.908	19.921	3.752	0.234
58.499	119.161	80.003	19.995	103.909	19.919	3.870	0.254
58.999	119.294	80.005	19.995	103.910	19.922	3.688	0.247
59.499	119.396	80.006	19.993	103.910	19.920	3.864	0.239
59.999	119.523	80.004	19.994	103.909	19.919	3.872	0.232
60.500	119.648	80.004	19.995	103.908	19.918	4.012	0.240
61.000	119.766	80.003	19.994	103.908	19.917	4.041	0.248
61.499	119.894	80.003	19.994	103.908	19.918	4.008	0.245
61.999	120.006	80.005	19.994	103.908	19.915	4.201	0.243
62.500	120.147	80.005	19.993	103.909	19.918	4.015	0.246
63.000	120.310	80.004	19.993	103.910	19.915	4.228	0.279
63.499	120.438	80.004	19.994	103.910	19.912	4.401	0.298
63.999	120.583	80.005	19.995	103.910	19.914	4.273	0.282
64.499	120.716	80.003	19.993	103.910	19.917	4.065	0.275
64.999	120.878	80.004	19.994	103.912	19.913	4.362	0.287
65.499	120.986	80.004	19.994	103.918	19.913	4.336	0.283
65.999	121.168	80.004	19.995	103.922	19.914	4.261	0.280
66.499	121.317	80.006	19.995	103.927	19.913	4.336	0.310
66.999	121.486	80.005	19.994	103.931	19.912	4.401	0.325
67.499	121.618	80.004	19.994	103.933	19.915	4.238	0.310
67.999	121.773	80.005	19.994	103.934	19.915	4.226	0.293
68.499	121.934	80.005	19.993	103.934	19.915	4.187	0.301
68.999	122.101	80.006	19.994	103.934	19.914	4.297	0.322
69.500	122.260	80.005	19.994	103.937	19.912	4.451	0.327
70.000	122.410	80.005	19.993	103.940	19.910	4.597	0.318
70.499	122.571	80.004	19.992	103.939	19.911	4.508	0.310
70.999	122.736	80.004	19.994	103.940	19.906	4.845	0.318
71.499	122.904	80.004	19.993	103.942	19.908	4.721	0.330
71.999	123.081	80.005	19.993	103.942	19.909	4.623	0.339
72.499	123.245	80.006	19.992	103.943	19.910	4.554	0.343
72.999	123.404	80.005	19.993	103.945	19.911	4.516	0.332
73.499	123.596	80.005	19.993	103.946	19.908	4.719	0.338
74.000	123.740	80.005	19.993	103.947	19.908	4.717	0.344
74.500	123.949	80.004	19.993	103.947	19.911	4.518	0.344
74.999	124.129	80.005	19.993	103.947	19.912	4.404	0.371
75.500	124.274	80.005	19.993	103.947	19.910	4.577	0.357
76.000	124.447	80.006	19.994	103.948	19.905	4.914	0.322
76.499	124.614	80.004	19.993	103.948	19.909	4.676	0.330
76.999	124.803	80.005	19.993	103.949	19.911	4.538	0.348
77.499	125.002	80.004	19.993	103.949	19.905	4.973	0.371
77.999	125.202	80.005	19.994	103.949	19.910	4.611	0.393
78.499	125.372	80.004	19.994	103.949	19.907	4.804	0.385
78.999	125.576	80.004	19.994	103.948	19.910	4.613	0.372
79.499	125.781	80.005	19.993	103.948	19.909	4.617	0.392
80.000	125.938	80.005	19.993	103.948	19.908	4.696	0.386
80.500	126.150	80.004	19.993	103.947	19.907	4.812	0.365
80.999	126.336	80.004	19.994	103.946	19.906	4.844	0.383
81.499	126.521	80.005	19.994	103.945	19.910	4.597	0.384
81.999	126.742	80.004	19.994	103.944	19.906	4.889	0.389
82.499	126.913	80.004	19.994	103.940	19.907	4.818	0.399
82.999	127.147	80.003	19.994	103.933	19.907	4.786	0.398
83.499	127.297	80.004	19.995	103.931	19.906	4.845	0.395
84.000	127.511	80.004	19.994	103.929	19.907	4.806	0.374
84.501	127.729	80.003	19.994	103.930	19.907	4.829	0.398
85.001	127.913	80.004	19.994	103.933	19.907	4.821	0.417
85.500	128.113	80.003	19.994	103.938	19.906	4.884	0.393
85.999	128.318	80.003	19.994	103.938	19.904	5.011	0.394
86.499	128.559	80.004	19.994	103.935	19.903	5.076	0.426
86.999	128.796	80.003	19.994	103.935	19.901	5.243	0.462
87.499	128.956	80.004	19.994	103.934	19.905	4.928	0.437
87.999	129.197	80.004	19.994	103.935	19.905	4.948	0.399
88.499	129.380	80.004	19.995	103.937	19.904	5.017	0.413
88.999	129.611	80.004	19.994	103.941	19.904	5.050	0.419
89.499	129.805	80.003	19.995	103.939	19.908	4.717	0.419
89.999	130.020	80.005	19.994	103.936	19.904	5.042	0.417
90.499	130.272	80.003	19.994	103.935	19.908	4.743	0.438
90.999	130.451	80.005	19.994	103.931	19.904	5.011	0.449
91.499	130.690	80.004	19.993	103.929	19.903	5.070	0.425
91.999	130.878	80.005	19.995	103.929	19.906	4.905	0.423
92.499	131.081	80.005	19.994	103.933	19.904	5.049	0.409
92.999	131.328	80.005	19.994	103.934	19.905	4.921	0.421
93.499	131.536	80.006	19.995	103.937	19.902	5.143	0.452
93.999	131.739	80.004	19.994	103.937	19.900	5.311	0.432
94.499	131.945	80.006	19.994	103.937	19.901	5.224	0.410
95.000	132.187	80.005	19.994	103.937	19.902	5.153	0.429
95.501	132.473	80.006	19.993	103.938	19.903	5.072	0.488
96.001	132.639	80.006	19.994	103.939	19.908	4.747	0.490
96.500	132.873	80.005	19.993	103.940	19.908	4.702	0.426
96.999	133.098	80.007	19.994	103.937	19.909	4.649	0.430
97.499	133.313	80.006	19.993	103.933	19.904	5.035	0.449
97.999	133.515	80.006	19.994	103.934	19.905	4.918	0.428
98.500	133.789	80.005	19.993	103.934	19.905	4.968	0.446
99.000	133.990	80.006	19.994	103.933	19.906	4.842	0.476
99.499	134.234	80.006	19.993	103.938	19.904	5.013	0.460
99.999	134.440	80.005	19.993	103.940	19.909	4.678	0.448
100.499	134.681	80.007	19.993	103.940	19.906	4.875	0.449
100.999	134.919	80.005	19.993	103.941	19.907	4.834	0.463
101.499	135.163	80.005	19.993	103.940	19.908	4.710	0.480
101.999	135.375	80.007	19.994	103.934	19.904	4.986	0.469
102.499	135.621	80.006	19.993	103.929	19.905	4.976	0.457
102.999	135.856	80.007	19.994	103.925	19.904	5.006	0.470
103.499	136.062	80.006	19.992	103.922	19.903	5.084	0.462
103.999	136.319	80.006	19.993	103.919	19.905	4.943	0.452
104.500	136.543	80.005	19.992	103.923	19.906	4.899	0.472
105.000	136.801	80.006	19.992	103.928	19.905	4.935	0.481
105.499	137.043	80.005	19.993	103.927	19.901	5.278	0.491
105.999	137.287	80.005	19.993	103.925	19.907	4.830	0.493
106.499	137.527	80.006	19.993	103.924	19.905	4.978	0.485
106.999	137.739	80.006	19.993	103.921	19.904	5.032	0.469
107.499	137.994	80.007	19.992	103.920	19.908	4.734	0.460
107.999	138.211	80.006	19.992	103.923	19.902	5.178	0.470
108.499	138.468	80.006	19.993	103.925	19.901	5.223	0.473
108.999	138.731	80.004	19.993	103.929	19.903	5.134	0.497
109.499	138.993	80.006	19.995	103.928	19.906	4.904	0.522
110.000	139.190	80.005	19.993	103.928	19.904	5.008	0.492
110.500	139.483	80.006	19.995	103.928	19.902	5.203	0.475
111.000	139.677	80.006	19.995	103.926	19.904	4.990	0.488
111.500	139.959	80.006	19.994	103.925	19.903	5.116	0.481
112.000	140.194	80.004	19.993	103.923	19.902	5.191	0.496
112.500	140.456	80.005	19.993	103.921	19.903	5.134	0.507
112.999	140.667	80.005	19.993	103.923	19.901	5.237	0.485
113.499	140.925	80.006	19.992	103.921	19.900	5.310	0.471
113.999	141.177	80.006	19.993	103.921	19.902	5.154	0.489
114.499	141.421	80.005	19.994	103.921	19.902	5.152	0.503
114.999	141.699	80.005	19.994	103.919	19.899	5.363	0.509
115.499	141.922	80.006	19.993	103.915	19.905	4.963	0.512
115.999	142.205	80.007	19.993	103.917	19.900	5.296	0.503
116.499	142.407	80.004	19.991	103.915	19.903	5.079	0.495
117.000	142.710	80.006	19.993	103.915	19.905	4.971	0.495
117.500	142.934	80.005	19.994	103.916	19.902	5.146	0.516
118.000	143.168	80.006	19.992	103.913	19.899	5.408	0.492
118.500	143.457	80.005	19.993	103.910	19.900	5.296	0.491
118.999	143.687	80.006	19.992	103.908	19.901	5.282	0.521
119.499	143.908	80.006	19.993	103.909	19.898	5.450	0.485
119.999	144.157	80.007	19.993	103.909	19.898	5.434	0.460
120.499	144.463	80.008	19.992	103.910	19.897	5.562	0.513
120.999	144.684	80.005	19.993	103.910	19.900	5.302	0.541
121.499	144.915	80.006	19.993	103.911	19.900	5.337	0.489
121.999	145.163	80.006	19.993	103.910	19.900	5.324	0.465
122.500	145.451	80.006	19.993	103.909	19.899	5.410	0.508
123.000	145.671	80.007	19.993	103.910	19.898	5.452	0.522
123.500	145.943	80.007	19.993	103.910	19.895	5.716	0.500
124.000	146.204	80.007	19.993	103.910	19.898	5.458	0.513
124.499	146.453	80.007	19.992	103.909	19.899	5.422	0.521
125.000	146.701	80.007	19.992	103.909	19.896	5.605	0.503
125.501	146.936	80.006	19.993	103.909	19.893	5.838	0.490
126.000	147.225	80.006	19.992	103.908	19.893	5.814	0.504
126.499	147.451	80.007	19.993	103.908	19.895	5.718	0.519
126.999	147.702	80.005	19.993	103.908	19.895	5.712	0.496
127.499	147.974	80.006	19.993	103.907	19.896	5.655	0.501
127.999	148.199	80.006	19.993	103.907	19.897	5.568	0.510
128.500	148.478	80.006	19.994	103.906	19.897	5.536	0.500
129.000	148.721	80.006	19.993	103.906	19.891	5.984	0.513
129.500	149.028	80.005	19.993	103.906	19.897	5.534	0.536
130.000	149.229	80.006	19.993	103.906	19.894	5.790	0.529
130.500	149.511	80.005	19.992	103.906	19.891	5.962	0.496
131.000	149.776	80.005	19.993	103.907	19.894	5.777	0.515
131.500	150.055	80.005	19.992	103.907	19.894	5.800	0.546
132.000	150.330	80.005	19.993	103.907	19.888	6.236	0.549
132.500	150.541	80.005	19.993	103.907	19.893	5.877	0.520
133.000	150.778	80.004	19.992	103.907	19.887	6.268	0.467
133.500	151.023	80.004	19.993	103.907	19.892	5.885	0.465
134.000	151.274	80.003	19.993	103.906	19.892	5.952	0.489
134.500	151.553	80.005	19.992	103.906	19.892	5.911	0.513
135.000	151.806	80.004	19.993	103.906	19.889	6.155	0.531
135.500	152.063	80.005	19.993	103.906	19.890	6.059	0.521
136.000	152.280	80.005	19.993	103.905	19.891	6.022	0.492
136.500	152.564	80.004	19.993	103.907	19.887	6.282	0.488
137.000	152.834	80.005	19.993	103.906	19.889	6.162	0.528
137.500	153.048	80.004	19.993	103.905	19.888	6.231	0.519
138.000	153.327	80.005	19.992	103.906	19.887	6.262	0.489
138.500	153.594	80.005	19.992	103.906	19.888	6.231	0.520
139.000	153.893	80.005	19.993	103.906	19.890	6.079	0.556
139.500	154.058	80.004	19.991	103.907	19.887	6.297	0.515
140.000	154.339	80.004	19.994	103.909	19.890	6.060	0.455
140.500	154.603	80.005	19.993	103.909	19.887	6.250	0.495
141.000	154.870	80.004	19.994	103.910	19.886	6.342	0.538
141.500	155.127	80.004	19.994	103.910	19.886	6.328	0.527
142.000	155.350	80.004	19.993	103.910	19.886	6.350	0.502
142.500	155.649	80.004	19.994	103.908	19.887	6.310	0.501
143.000	155.918	80.005	19.993	103.908	19.885	6.412	0.545
143.500	156.149	80.004	19.993	103.907	19.882	6.641	0.534
144.000	156.382	80.005	19.993	103.906	19.885	6.466	0.482
144.500	156.626	80.005	19.993	103.906	19.882	6.691	0.470
145.000	156.927	80.006	19.993	103.906	19.886	6.376	0.511
145.500	157.140	80.005	19.993	103.905	19.881	6.721	0.530
146.000	157.400	80.005	19.993	103.904	19.881	6.704	0.494
146.500	157.661	80.004	19.993	103.902	19.883	6.601	0.497
147.000	157.898	80.004	19.993	103.901	19.883	6.558	0.509
147.500	158.154	80.005	19.993	103.896	19.880	6.774	0.495
148.000	158.389	80.004	19.993	103.896	19.882	6.652	0.492
148.500	158.699	80.005	19.992	103.896	19.880	6.808	0.518
149.000	158.925	80.004	19.993	103.895	19.883	6.548	0.541
149.500	159.148	80.004	19.993	103.888	19.882	6.684	0.492
150.000	159.435	80.004	19.994	103.889	19.884	6.487	0.480
150.500	159.685	80.005	19.992	103.884	19.883	6.556	0.524
151.000	159.950	80.005	19.993	103.878	19.879	6.909	0.526
151.500	160.193	80.005	19.993	103.875	19.879	6.909	0.512
152.000	160.445	80.005	19.994	103.883	19.881	6.737	0.501
152.500	160.719	80.006	19.994	103.885	19.878	6.932	0.510
153.000	160.964	80.005	19.993	103.886	19.881	6.715	0.522
153.500	161.229	80.005	19.993	103.890	19.879	6.909	0.514
154.000	161.489	80.004	19.993	103.894	19.880	6.786	0.518
154.500	161.736	80.004	19.994	103.891	19.877	6.999	0.516
155.000	162.025	80.005	19.994	103.885	19.875	7.212	0.521
155.500	162.245	80.005	19.993	103.883	19.877	7.021	0.522
156.000	162.524	80.005	19.993	103.878	19.876	7.074	0.504
156.500	162.767	80.005	19.993	103.872	19.876	7.100	0.511
157.000	163.000	80.005	19.994	103.868	19.875	7.206	0.499
157.500	163.244	80.004	19.993	103.870	19.876	7.135	0.477
158.000	163.522	80.006	19.993	103.871	19.872	7.386	0.500
158.500	163.738	80.004	19.993	103.872	19.874	7.228	0.508
159.000	164.050	80.006	19.994	103.871	19.873	7.297	0.511
159.500	164.272	80.005	19.994	103.871	19.871	7.494	0.531
160.000	164.556	80.004	19.993	103.869	19.873	7.303	0.520
160.500	164.772	80.003	19.993	103.868	19.871	7.443	0.503
161.000	165.065	80.004	19.993	103.867	19.869	7.619	0.505
161.500	165.337	80.005	19.993	103.867	19.873	7.355	0.537
162.000	165.565	80.004	19.993	103.866	19.873	7.366	0.532
162.500	165.875	80.004	19.994	103.866	19.872	7.394	0.519
163.000	166.093	80.004	19.994	103.866	19.869	7.632	0.533
163.500	166.385	80.004	19.993	103.868	19.868	7.668	0.519
164.000	166.632	80.006	19.994	103.869	19.868	7.692	0.524
164.500	166.875	80.005	19.994	103.869	19.868	7.723	0.514
165.000	167.106	80.005	19.993	103.869	19.870	7.581	0.482
165.500	167.406	80.005	19.994	103.868	19.868	7.715	0.502
166.000	167.601	80.004	19.993	103.868	19.869	7.619	0.513
166.500	167.888	80.005	19.994	103.867	19.867	7.762	0.489
167.000	168.141	80.004	19.993	103.868	19.869	7.630	0.511
167.500	168.395	80.004	19.994	103.867	19.871	7.490	0.523
168.000	168.635	80.004	19.993	103.868	19.867	7.768	0.500
168.500	168.859	80.005	19.993	103.868	19.865	7.950	0.479
169.000	169.124	80.004	19.994	103.868	19.861	8.247	0.477
169.500	169.364	80.005	19.993	103.868	19.868	7.701	0.497
170.000	169.630	80.004	19.993	103.868	19.864	8.029	0.505
170.500	169.897	80.005	19.993	103.868	19.860	8.309	0.519
171.000	170.132	80.004	19.993	103.866	19.865	7.912	0.518
171.500	170.385	80.004	19.994	103.863	19.859	8.362	0.495
172.000	170.610	80.004	19.994	103.863	19.868	7.713	0.483
172.500	170.865	80.006	19.993	103.863	19.860	8.299	0.479
