Sample ID:	C:\MCC\MCC Cal\Test\Rubber_Band_MCC_30K_min_220208_R1.txt
Sample Weight (mg):	4.2
Heating Rate (C/s):	0.5
Combustor Temp (C):	900
N2 Flow Rate (cc/min):	80
O2 Flow Rate (cc/min):	20
Calibration File:	C:\MCC\MCC Cal\Coeff1 JN10440_30_210304.txt.txt
T Correction Coefficients:	0	1.024463	0
Time Shift (s):	14
*
Time (s)	Temperature (C)	N2 flow rate (cc/min)	O2 flow rate (cc/min)	Flow Rate (cc/min)	Oxygen (%)	HRR (W/g)	Heating rate (C/s)
0.000	111.971	80.011	19.993	103.713	20.005	-0.369	0.006
0.499	112.008	80.011	19.993	103.712	20.005	-0.374	-0.012
1.000	112.017	80.011	19.993	103.712	20.002	-0.136	0.018
1.500	111.975	80.010	19.994	103.712	20.005	-0.367	0.006
2.000	112.020	80.011	19.992	103.711	20.006	-0.428	-0.015
2.500	111.994	80.011	19.993	103.705	20.006	-0.422	0.011
3.000	112.023	80.011	19.993	103.698	20.002	-0.105	0.011
3.500	111.976	80.011	19.993	103.696	20.005	-0.321	-0.007
4.000	112.021	80.012	19.993	103.696	20.003	-0.164	-0.010
4.500	111.994	80.012	19.994	103.696	20.005	-0.332	0.008
5.000	112.021	80.011	19.993	103.702	20.008	-0.577	0.009
5.500	111.979	80.011	19.993	103.709	20.005	-0.357	-0.007
6.000	112.015	80.013	19.994	103.709	20.003	-0.206	-0.011
6.500	112.040	80.011	19.993	103.709	20.004	-0.305	0.027
7.000	111.995	80.011	19.993	103.710	20.006	-0.435	0.021
7.500	112.013	80.010	19.993	103.710	20.005	-0.378	-0.023
8.000	112.046	80.012	19.992	103.712	20.002	-0.141	0.012
8.499	112.041	80.011	19.994	103.712	20.004	-0.239	0.040
8.999	112.013	80.012	19.993	103.713	20.002	-0.155	-0.002
9.499	112.044	80.010	19.993	103.713	20.002	-0.092	-0.015
9.999	111.997	80.009	19.993	103.716	20.004	-0.281	-0.006
10.499	112.055	80.010	19.993	103.716	20.000	0.015	-0.003
10.999	112.074	80.010	19.993	103.724	19.999	0.137	0.044
11.499	112.065	80.012	19.992	103.731	20.000	0.029	0.044
12.000	112.053	80.010	19.993	103.738	19.996	0.321	-0.005
12.500	112.051	80.010	19.994	103.743	19.996	0.323	-0.018
12.999	112.070	80.010	19.992	103.749	19.997	0.273	0.001
13.499	112.087	80.008	19.992	103.751	19.997	0.256	0.027
13.999	112.069	80.008	19.993	103.752	19.998	0.172	0.018
14.499	112.063	80.009	19.995	103.752	19.994	0.508	-0.013
14.999	112.070	80.010	19.993	103.753	19.993	0.567	-0.012
15.499	112.070	80.009	19.994	103.758	19.995	0.441	0.004
15.999	112.082	80.010	19.993	103.765	19.995	0.418	0.010
16.499	112.087	80.009	19.995	103.773	19.994	0.500	0.014
16.999	112.076	80.009	19.993	103.782	19.992	0.664	0.005
17.500	112.084	80.009	19.993	103.789	19.993	0.605	-0.005
18.000	112.094	80.010	19.993	103.796	19.994	0.521	0.008
18.499	112.169	80.010	19.994	103.798	19.988	0.941	0.052
18.999	112.144	80.008	19.994	103.799	19.991	0.735	0.067
19.499	112.144	80.009	19.994	103.799	19.990	0.809	0.012
19.999	112.169	80.008	19.994	103.798	19.989	0.918	0.000
20.499	112.197	80.008	19.993	103.795	19.987	1.057	0.039
21.000	112.193	80.008	19.994	103.797	19.989	0.864	0.038
21.500	112.227	80.009	19.993	103.801	19.991	0.765	0.027
22.000	112.259	80.010	19.993	103.806	19.989	0.902	0.048
22.499	112.306	80.010	19.993	103.809	19.987	1.040	0.072
22.999	112.268	80.009	19.993	103.813	19.987	1.034	0.044
23.499	112.307	80.009	19.994	103.808	19.985	1.168	0.005
23.999	112.353	80.009	19.993	103.806	19.989	0.870	0.043
24.499	112.347	80.009	19.994	103.805	19.987	1.023	0.063
24.999	112.398	80.009	19.994	103.806	19.987	1.006	0.043
25.499	112.399	80.009	19.994	103.809	19.981	1.477	0.049
25.999	112.441	80.009	19.994	103.810	19.986	1.143	0.048
26.499	112.435	80.009	19.995	103.814	19.985	1.170	0.039
26.999	112.490	80.010	19.994	103.813	19.983	1.347	0.042
27.500	112.500	80.009	19.995	103.809	19.984	1.229	0.057
28.000	112.576	80.009	19.994	103.802	19.982	1.416	0.076
28.499	112.576	80.010	19.994	103.807	19.985	1.183	0.081
28.999	112.618	80.010	19.994	103.808	19.979	1.673	0.059
29.499	112.671	80.010	19.995	103.812	19.979	1.624	0.068
29.999	112.663	80.010	19.995	103.821	19.977	1.786	0.070
30.499	112.720	80.010	19.994	103.835	19.979	1.664	0.047
30.999	112.741	80.009	19.994	103.844	19.976	1.896	0.064
31.499	112.805	80.010	19.994	103.850	19.979	1.631	0.082
31.999	112.830	80.008	19.994	103.855	19.977	1.843	0.087
32.499	112.866	80.009	19.994	103.861	19.978	1.766	0.075
32.999	112.945	80.009	19.994	103.857	19.978	1.719	0.088
33.499	112.985	80.010	19.994	103.853	19.977	1.808	0.117
33.999	113.029	80.010	19.994	103.855	19.976	1.896	0.101
34.499	113.066	80.009	19.994	103.856	19.975	1.959	0.082
34.999	113.107	80.010	19.995	103.850	19.977	1.839	0.080
35.499	113.170	80.010	19.994	103.847	19.977	1.818	0.091
35.999	113.251	80.010	19.995	103.843	19.974	2.007	0.124
36.499	113.290	80.010	19.994	103.836	19.977	1.810	0.132
36.999	113.349	80.009	19.994	103.829	19.976	1.890	0.109
37.499	113.396	80.008	19.995	103.830	19.973	2.098	0.102
37.999	113.440	80.010	19.994	103.832	19.972	2.222	0.098
38.499	113.532	80.009	19.994	103.836	19.977	1.823	0.114
38.999	113.566	80.008	19.993	103.841	19.972	2.172	0.132
39.499	113.620	80.009	19.993	103.847	19.972	2.205	0.107
40.000	113.669	80.008	19.995	103.853	19.973	2.155	0.095
40.501	113.757	80.008	19.994	103.858	19.973	2.128	0.120
41.001	113.808	80.008	19.994	103.863	19.972	2.163	0.138
41.500	113.915	80.009	19.994	103.866	19.970	2.365	0.148
41.999	113.928	80.008	19.993	103.870	19.974	2.060	0.139
42.499	114.005	80.009	19.995	103.876	19.972	2.205	0.105
42.999	114.072	80.007	19.995	103.877	19.970	2.329	0.118
43.499	114.137	80.009	19.994	103.878	19.971	2.308	0.138
43.999	114.231	80.008	19.994	103.880	19.971	2.283	0.145
44.499	114.234	80.009	19.993	103.881	19.970	2.373	0.127
45.000	114.342	80.008	19.994	103.878	19.969	2.415	0.104
45.500	114.459	80.006	19.995	103.877	19.969	2.420	0.168
45.999	114.502	80.007	19.993	103.881	19.969	2.397	0.193
46.499	114.560	80.007	19.994	103.884	19.967	2.594	0.130
46.999	114.642	80.008	19.994	103.886	19.968	2.502	0.120
47.499	114.704	80.008	19.994	103.893	19.968	2.506	0.142
47.999	114.812	80.008	19.993	103.899	19.965	2.706	0.157
48.499	114.857	80.007	19.994	103.901	19.966	2.656	0.162
49.000	114.996	80.008	19.994	103.903	19.965	2.736	0.169
49.501	115.090	80.006	19.993	103.906	19.965	2.710	0.208
50.001	115.176	80.008	19.994	103.907	19.966	2.677	0.206
50.500	115.299	80.008	19.994	103.909	19.965	2.774	0.194
50.999	115.365	80.008	19.993	103.910	19.965	2.753	0.199
51.499	115.454	80.008	19.995	103.911	19.969	2.410	0.172
51.999	115.533	80.009	19.995	103.911	19.964	2.825	0.162
52.499	115.632	80.008	19.994	103.911	19.966	2.659	0.173
52.999	115.727	80.009	19.996	103.910	19.963	2.886	0.186
53.499	115.837	80.008	19.993	103.909	19.965	2.774	0.200
53.999	115.944	80.008	19.994	103.902	19.969	2.419	0.211
54.499	116.036	80.008	19.994	103.894	19.967	2.574	0.208
54.999	116.157	80.009	19.994	103.891	19.963	2.852	0.206
55.499	116.244	80.008	19.995	103.890	19.963	2.926	0.210
55.999	116.371	80.008	19.994	103.890	19.962	2.997	0.211
56.499	116.471	80.007	19.995	103.898	19.964	2.825	0.221
56.999	116.577	80.009	19.995	103.905	19.962	2.982	0.217
57.499	116.688	80.008	19.995	103.908	19.962	2.963	0.211
58.000	116.805	80.009	19.994	103.910	19.964	2.776	0.222
58.500	116.940	80.009	19.994	103.910	19.963	2.924	0.240
58.999	117.006	80.009	19.994	103.912	19.959	3.226	0.226
59.499	117.148	80.010	19.995	103.914	19.957	3.380	0.205
60.000	117.233	80.009	19.996	103.917	19.956	3.458	0.218
60.500	117.384	80.009	19.995	103.924	19.957	3.386	0.231
60.999	117.493	80.009	19.994	103.930	19.959	3.180	0.248
61.499	117.613	80.010	19.995	103.935	19.959	3.172	0.245
61.999	117.732	80.009	19.995	103.942	19.956	3.395	0.234
62.499	117.848	80.010	19.993	103.946	19.959	3.168	0.238
62.999	117.924	80.009	19.995	103.947	19.962	2.993	0.213
63.500	118.067	80.010	19.995	103.948	19.960	3.134	0.205
64.000	118.199	80.009	19.995	103.948	19.956	3.420	0.247
64.499	118.323	80.009	19.994	103.948	19.960	3.134	0.265
64.999	118.441	80.008	19.994	103.946	19.954	3.565	0.249
65.499	118.571	80.010	19.994	103.945	19.955	3.483	0.245
65.999	118.712	80.010	19.994	103.945	19.956	3.439	0.259
66.499	118.843	80.009	19.994	103.945	19.955	3.540	0.271
66.999	118.967	80.010	19.995	103.945	19.955	3.540	0.263
67.499	119.101	80.010	19.994	103.946	19.957	3.391	0.257
67.999	119.225	80.010	19.994	103.947	19.955	3.513	0.259
68.499	119.393	80.010	19.993	103.947	19.958	3.262	0.275
68.999	119.541	80.011	19.994	103.947	19.954	3.559	0.303
69.499	119.634	80.011	19.993	103.947	19.956	3.415	0.278
69.999	119.784	80.009	19.994	103.947	19.954	3.567	0.242
70.499	119.913	80.010	19.994	103.947	19.957	3.342	0.261
70.999	120.073	80.010	19.994	103.948	19.955	3.510	0.284
71.499	120.188	80.011	19.993	103.954	19.956	3.434	0.282
71.999	120.361	80.010	19.993	103.958	19.954	3.552	0.282
72.499	120.516	80.009	19.995	103.958	19.953	3.641	0.308
73.000	120.624	80.010	19.993	103.958	19.952	3.715	0.296
73.500	120.762	80.010	19.994	103.957	19.951	3.780	0.255
73.999	120.899	80.011	19.993	103.949	19.954	3.576	0.260
74.500	121.073	80.010	19.993	103.945	19.954	3.576	0.293
75.000	121.281	80.010	19.994	103.945	19.952	3.775	0.347
75.499	121.351	80.010	19.993	103.945	19.954	3.611	0.330
76.000	121.534	80.010	19.994	103.946	19.954	3.603	0.265
76.500	121.684	80.009	19.994	103.947	19.951	3.836	0.293
77.000	121.880	80.011	19.993	103.948	19.951	3.786	0.339
77.501	122.020	80.010	19.994	103.949	19.951	3.818	0.341
78.000	122.146	80.011	19.994	103.951	19.953	3.673	0.301
78.499	122.297	80.010	19.993	103.952	19.951	3.851	0.271
78.999	122.468	80.011	19.993	103.952	19.950	3.900	0.300
79.499	122.623	80.010	19.994	103.950	19.949	3.958	0.324
79.999	122.747	80.011	19.994	103.946	19.953	3.681	0.303
80.499	122.927	80.011	19.993	103.942	19.951	3.834	0.292
80.999	123.126	80.012	19.993	103.934	19.952	3.759	0.342
81.499	123.326	80.011	19.993	103.933	19.950	3.860	0.389
81.999	123.459	80.011	19.993	103.935	19.951	3.843	0.366
82.500	123.618	80.010	19.994	103.939	19.949	3.967	0.312
83.000	123.827	80.011	19.994	103.944	19.948	4.013	0.330
83.499	123.970	80.010	19.993	103.953	19.951	3.855	0.360
83.999	124.147	80.011	19.993	103.955	19.950	3.885	0.336
84.499	124.325	80.012	19.994	103.954	19.950	3.893	0.338
84.999	124.458	80.010	19.994	103.952	19.951	3.847	0.334
85.499	124.627	80.011	19.992	103.949	19.947	4.121	0.306
85.999	124.831	80.012	19.993	103.945	19.952	3.749	0.337
86.499	124.982	80.013	19.993	103.945	19.947	4.115	0.364
86.999	125.168	80.012	19.993	103.948	19.949	3.995	0.346
87.499	125.311	80.012	19.992	103.949	19.950	3.902	0.333
87.999	125.470	80.011	19.993	103.954	19.950	3.894	0.315
88.500	125.687	80.012	19.992	103.957	19.948	4.050	0.339
89.000	125.873	80.012	19.994	103.956	19.947	4.117	0.389
89.500	126.007	80.013	19.994	103.954	19.946	4.172	0.362
90.001	126.224	80.011	19.992	103.953	19.945	4.308	0.336
90.500	126.408	80.012	19.994	103.949	19.946	4.180	0.376
91.000	126.584	80.011	19.993	103.951	19.943	4.432	0.381
91.501	126.760	80.011	19.993	103.955	19.943	4.422	0.356
92.001	126.951	80.012	19.994	103.956	19.945	4.285	0.359
92.500	127.137	80.010	19.994	103.955	19.941	4.552	0.372
92.999	127.303	80.011	19.993	103.956	19.945	4.243	0.365
93.500	127.456	80.011	19.993	103.952	19.944	4.363	0.336
94.000	127.682	80.010	19.994	103.948	19.945	4.270	0.349
94.499	127.850	80.010	19.993	103.947	19.946	4.234	0.386
94.999	128.015	80.010	19.994	103.949	19.944	4.320	0.363
95.499	128.209	80.011	19.993	103.954	19.946	4.192	0.346
95.999	128.401	80.009	19.993	103.959	19.944	4.323	0.373
96.500	128.565	80.009	19.993	103.960	19.944	4.369	0.371
97.000	128.813	80.010	19.993	103.965	19.945	4.300	0.384
97.499	128.982	80.010	19.993	103.971	19.945	4.289	0.414
97.999	129.198	80.010	19.994	103.971	19.942	4.487	0.401
98.499	129.378	80.010	19.992	103.972	19.944	4.386	0.391
98.999	129.561	80.009	19.994	103.973	19.943	4.443	0.380
99.499	129.766	80.009	19.993	103.972	19.945	4.253	0.376
100.000	129.961	80.009	19.994	103.970	19.945	4.278	0.394
100.501	130.130	80.009	19.993	103.970	19.944	4.369	0.382
101.000	130.284	80.008	19.994	103.968	19.945	4.247	0.344
101.499	130.508	80.008	19.993	103.968	19.943	4.426	0.351
101.999	130.715	80.010	19.994	103.965	19.945	4.243	0.405
102.500	130.915	80.009	19.994	103.960	19.942	4.506	0.418
103.000	131.079	80.009	19.993	103.959	19.942	4.479	0.385
103.499	131.284	80.009	19.994	103.959	19.944	4.370	0.366
103.999	131.456	80.010	19.994	103.958	19.942	4.521	0.373
104.499	131.668	80.010	19.995	103.960	19.943	4.414	0.381
104.999	131.850	80.010	19.994	103.960	19.943	4.403	0.389
105.499	132.050	80.010	19.994	103.957	19.944	4.361	0.388
105.999	132.253	80.009	19.993	103.958	19.940	4.630	0.392
106.499	132.465	80.008	19.992	103.958	19.942	4.537	0.409
106.999	132.715	80.010	19.993	103.960	19.942	4.523	0.439
107.499	132.884	80.009	19.994	103.966	19.942	4.510	0.440
107.999	133.105	80.010	19.994	103.971	19.942	4.527	0.404
108.499	133.279	80.009	19.993	103.970	19.943	4.420	0.393
108.999	133.493	80.010	19.993	103.970	19.939	4.765	0.391
109.499	133.676	80.008	19.992	103.967	19.939	4.707	0.392
109.999	133.897	80.010	19.994	103.961	19.938	4.824	0.401
110.499	134.100	80.009	19.993	103.959	19.943	4.420	0.414
110.999	134.329	80.009	19.994	103.959	19.941	4.561	0.428
111.499	134.540	80.009	19.993	103.958	19.942	4.514	0.436
111.999	134.723	80.009	19.993	103.961	19.944	4.382	0.417
112.499	134.950	80.011	19.994	103.965	19.939	4.753	0.402
113.000	135.164	80.009	19.993	103.968	19.940	4.703	0.426
113.500	135.349	80.009	19.994	103.971	19.941	4.556	0.420
113.999	135.586	80.008	19.993	103.975	19.939	4.733	0.411
114.500	135.802	80.009	19.994	103.977	19.939	4.757	0.438
115.001	136.005	80.009	19.993	103.976	19.939	4.716	0.436
115.501	136.194	80.010	19.994	103.973	19.938	4.806	0.405
116.000	136.392	80.010	19.994	103.967	19.937	4.869	0.390
116.499	136.600	80.008	19.994	103.963	19.938	4.796	0.396
116.999	136.861	80.008	19.994	103.960	19.938	4.804	0.437
117.499	137.091	80.010	19.994	103.963	19.935	5.081	0.480
117.999	137.288	80.009	19.994	103.963	19.937	4.927	0.459
118.499	137.502	80.011	19.993	103.963	19.935	5.048	0.419
118.999	137.739	80.009	19.994	103.964	19.939	4.780	0.432
119.499	137.925	80.010	19.994	103.968	19.936	4.978	0.437
119.999	138.163	80.008	19.994	103.972	19.935	5.065	0.423
120.499	138.362	80.009	19.993	103.952	19.934	5.155	0.430
120.999	138.578	80.008	19.992	103.936	19.935	5.073	0.426
121.499	138.801	80.010	19.993	103.929	19.933	5.184	0.427
121.999	139.023	80.009	19.994	103.923	19.934	5.130	0.442
122.499	139.232	80.009	19.993	103.913	19.932	5.302	0.438
122.999	139.434	80.010	19.994	103.958	19.933	5.204	0.421
123.499	139.681	80.009	19.993	103.993	19.933	5.225	0.430
123.999	139.888	80.010	19.995	104.007	19.934	5.162	0.451
124.499	140.149	80.008	19.995	104.014	19.934	5.133	0.461
124.999	140.389	80.009	19.994	104.017	19.933	5.231	0.485
125.500	140.587	80.009	19.994	103.987	19.934	5.095	0.469
126.000	140.826	80.008	19.993	103.960	19.936	5.002	0.437
126.499	141.044	80.007	19.994	103.952	19.932	5.284	0.447
127.000	141.262	80.008	19.993	103.949	19.932	5.262	0.447
127.501	141.456	80.008	19.995	103.952	19.934	5.105	0.424
128.000	141.706	80.008	19.993	103.960	19.935	5.016	0.428
128.500	141.934	80.007	19.994	103.974	19.933	5.219	0.461
129.000	142.166	80.009	19.994	103.982	19.932	5.280	0.469
129.500	142.372	80.008	19.993	103.987	19.932	5.308	0.449
130.000	142.622	80.009	19.995	103.989	19.931	5.354	0.447
130.500	142.837	80.009	19.995	103.990	19.931	5.344	0.461
131.000	143.054	80.008	19.994	103.993	19.934	5.115	0.449
131.500	143.281	80.008	19.995	103.993	19.932	5.302	0.438
132.000	143.511	80.008	19.994	103.992	19.934	5.148	0.451
132.500	143.776	80.007	19.994	103.988	19.935	5.058	0.476
133.000	143.993	80.009	19.994	103.984	19.934	5.148	0.488
133.500	144.228	80.009	19.994	103.976	19.932	5.279	0.467
134.000	144.444	80.010	19.993	103.968	19.931	5.386	0.452
134.500	144.717	80.008	19.994	103.961	19.934	5.123	0.470
135.000	144.939	80.009	19.994	103.961	19.932	5.308	0.492
135.500	145.170	80.008	19.993	103.959	19.932	5.321	0.474
136.000	145.412	80.009	19.993	103.958	19.931	5.388	0.463
136.500	145.590	80.009	19.994	103.958	19.932	5.306	0.446
137.000	145.885	80.009	19.994	103.957	19.930	5.409	0.446
137.500	146.086	80.009	19.994	103.952	19.930	5.462	0.484
138.000	146.363	80.009	19.994	103.948	19.931	5.342	0.487
138.500	146.551	80.010	19.994	103.947	19.930	5.468	0.472
139.000	146.785	80.009	19.994	103.951	19.930	5.460	0.443
139.500	147.033	80.011	19.993	103.955	19.929	5.510	0.452
140.000	147.279	80.009	19.994	103.962	19.929	5.493	0.488
140.500	147.545	80.009	19.994	103.969	19.930	5.448	0.503
141.000	147.750	80.008	19.994	103.977	19.930	5.475	0.491
141.500	147.980	80.011	19.995	103.981	19.928	5.599	0.453
142.000	148.216	80.010	19.994	103.984	19.929	5.528	0.451
142.500	148.480	80.010	19.994	103.984	19.929	5.526	0.483
143.000	148.697	80.009	19.994	103.984	19.927	5.675	0.490
143.500	148.944	80.010	19.995	103.980	19.928	5.620	0.472
144.000	149.168	80.010	19.993	103.980	19.931	5.338	0.467
144.500	149.412	80.011	19.993	103.979	19.931	5.330	0.470
145.000	149.649	80.009	19.993	103.978	19.932	5.290	0.475
145.500	149.904	80.010	19.994	103.977	19.927	5.683	0.486
146.000	150.173	80.008	19.993	103.980	19.927	5.671	0.508
146.500	150.401	80.009	19.994	103.980	19.926	5.770	0.511
147.000	150.644	80.010	19.995	103.980	19.924	5.875	0.484
147.500	150.902	80.009	19.994	103.982	19.925	5.816	0.486
148.000	151.124	80.010	19.994	103.982	19.925	5.803	0.490
148.500	151.378	80.009	19.993	103.981	19.927	5.647	0.478
149.000	151.611	80.010	19.995	103.981	19.929	5.540	0.482
149.500	151.838	80.009	19.993	103.981	19.927	5.702	0.474
150.000	152.076	80.009	19.994	103.980	19.925	5.810	0.462
150.500	152.363	80.010	19.994	103.978	19.927	5.701	0.495
151.000	152.593	80.010	19.994	103.974	19.924	5.913	0.521
151.500	152.818	80.009	19.994	103.967	19.925	5.842	0.486
152.000	153.047	80.010	19.996	103.961	19.923	6.012	0.455
152.500	153.277	80.009	19.994	103.959	19.923	5.996	0.457
153.000	153.534	80.008	19.994	103.959	19.924	5.863	0.473
153.500	153.767	80.007	19.995	103.959	19.925	5.801	0.488
154.000	154.030	80.010	19.995	103.958	19.923	6.006	0.493
154.500	154.253	80.009	19.996	103.956	19.922	6.070	0.491
155.000	154.528	80.010	19.995	103.952	19.923	5.946	0.492
155.500	154.753	80.009	19.995	103.947	19.922	6.071	0.499
156.000	154.989	80.009	19.995	103.950	19.921	6.135	0.481
156.500	155.279	80.009	19.995	103.955	19.918	6.352	0.494
157.000	155.494	80.010	19.995	103.958	19.925	5.797	0.515
157.500	155.759	80.009	19.994	103.960	19.921	6.149	0.492
158.000	155.964	80.010	19.995	103.958	19.920	6.237	0.475
158.500	156.245	80.010	19.995	103.953	19.924	5.940	0.478
159.000	156.486	80.010	19.995	103.948	19.920	6.180	0.504
159.500	156.701	80.011	19.994	103.946	19.921	6.119	0.489
160.000	156.972	80.011	19.996	103.946	19.921	6.153	0.471
160.500	157.203	80.009	19.994	103.955	19.922	6.071	0.494
161.000	157.465	80.009	19.994	103.959	19.919	6.296	0.498
161.500	157.677	80.009	19.994	103.961	19.916	6.531	0.483
162.000	157.970	80.011	19.994	103.967	19.922	6.075	0.489
162.500	158.191	80.011	19.994	103.976	19.920	6.192	0.510
163.000	158.446	80.011	19.996	103.960	19.918	6.369	0.496
163.500	158.694	80.010	19.994	103.939	19.917	6.468	0.490
164.000	158.963	80.011	19.995	103.925	19.919	6.312	0.510
164.500	159.221	80.012	19.995	103.912	19.919	6.313	0.522
165.000	159.414	80.010	19.994	103.900	19.915	6.569	0.489
165.500	159.663	80.011	19.993	103.909	19.918	6.371	0.446
166.000	159.891	80.012	19.994	103.952	19.917	6.426	0.459
166.500	160.116	80.011	19.994	103.993	19.919	6.291	0.465
167.000	160.435	80.010	19.993	104.012	19.916	6.516	0.498
167.500	160.659	80.012	19.993	104.021	19.913	6.735	0.543
168.000	160.913	80.011	19.993	104.026	19.916	6.524	0.511
168.500	161.181	80.011	19.994	103.999	19.915	6.627	0.500
169.000	161.404	80.012	19.994	103.970	19.913	6.718	0.506
169.500	161.669	80.011	19.992	103.957	19.912	6.823	0.490
170.000	161.937	80.011	19.994	103.953	19.911	6.901	0.511
170.500	162.167	80.011	19.994	103.952	19.914	6.650	0.515
171.000	162.402	80.012	19.995	103.958	19.910	6.960	0.481
171.500	162.692	80.012	19.995	103.960	19.912	6.794	0.495
172.000	162.929	80.012	19.994	103.960	19.910	6.949	0.526
172.500	163.165	80.012	19.994	103.957	19.913	6.716	0.500
