Sample ID:	C:\MCC\MCC Cal\Test\Rubber_Band_MCC_30K_min_220208_R2.txt
Sample Weight (mg):	4.48
Heating Rate (C/s):	0.5
Combustor Temp (C):	900
N2 Flow Rate (cc/min):	80
O2 Flow Rate (cc/min):	20
Calibration File:	C:\MCC\MCC Cal\Coeff1 JN10440_30_210304.txt.txt
T Correction Coefficients:	0	1.024463	0
Time Shift (s):	14
*
Time (s)	Temperature (C)	N2 flow rate (cc/min)	O2 flow rate (cc/min)	Flow Rate (cc/min)	Oxygen (%)	HRR (W/g)	Heating rate (C/s)
0.000	113.918	80.005	19.993	103.658	20.014	-0.016	-0.016
0.500	113.991	80.006	19.993	103.659	20.011	0.144	0.027
1.000	113.964	80.009	19.993	103.661	20.011	0.155	0.059
1.500	113.968	80.005	19.996	103.665	20.012	0.071	0.011
2.000	113.940	80.007	19.994	103.668	20.018	-0.326	-0.024
2.500	113.873	80.006	19.993	103.670	20.015	-0.151	-0.059
3.000	113.941	80.006	19.994	103.670	20.015	-0.118	-0.047
3.500	113.946	80.007	19.992	103.671	20.017	-0.248	0.037
4.000	113.951	80.008	19.993	103.669	20.014	-0.079	0.041
4.500	113.887	80.011	19.992	103.669	20.013	0.043	-0.025
5.000	113.879	80.001	19.995	103.669	20.014	-0.053	-0.066
5.500	113.949	80.011	19.996	103.666	20.012	0.065	-0.005
6.000	113.932	80.014	19.995	103.665	20.016	-0.201	0.058
6.500	113.913	80.013	19.996	103.666	20.011	0.148	0.009
7.000	113.869	80.006	19.993	103.667	20.017	-0.269	-0.050
7.500	113.939	80.019	19.991	103.666	20.014	-0.028	-0.018
8.000	113.933	80.011	19.992	103.671	20.011	0.149	0.045
8.500	113.930	80.009	19.993	103.672	20.013	-0.006	0.027
9.000	113.915	80.004	19.994	103.674	20.013	0.006	-0.014
9.500	113.924	80.004	19.993	103.674	20.014	-0.063	-0.012
10.000	113.905	80.006	19.994	103.676	20.010	0.242	-0.007
10.500	113.920	80.011	19.993	103.675	20.015	-0.114	-0.007
11.000	113.937	80.006	19.993	103.676	20.012	0.100	0.014
11.500	113.890	80.008	19.993	103.674	20.013	0.045	0.001
12.000	113.899	80.007	19.994	103.674	20.012	0.102	-0.034
12.500	113.883	80.005	19.996	103.674	20.010	0.270	-0.023
13.000	113.931	80.006	19.994	103.673	20.011	0.183	0.013
13.500	113.843	80.001	19.994	103.673	20.009	0.336	-0.004
14.000	113.845	80.007	19.993	103.674	20.015	-0.096	-0.064
14.500	113.893	80.007	19.995	103.674	20.010	0.268	-0.018
15.000	113.924	80.019	19.991	103.673	20.013	0.053	0.065
15.500	113.872	80.008	19.993	103.676	20.012	0.112	0.029
16.000	113.904	80.007	19.993	103.675	20.009	0.336	-0.021
16.500	113.941	80.007	19.994	103.675	20.013	0.012	0.025
17.000	113.929	80.005	19.996	103.676	20.016	-0.165	0.047
17.500	113.910	80.005	19.994	103.682	20.010	0.270	-0.003
18.000	113.903	80.008	19.994	103.684	20.009	0.277	-0.029
18.500	113.899	80.000	19.991	103.687	20.007	0.435	-0.018
19.000	113.932	80.000	19.993	103.692	20.009	0.295	0.009
19.500	113.924	80.014	19.993	103.699	20.011	0.193	0.027
20.000	113.939	80.012	19.993	103.702	20.011	0.138	0.016
20.500	113.895	80.008	19.992	103.706	20.007	0.476	-0.011
21.000	113.929	80.011	19.993	103.708	20.011	0.197	-0.019
21.500	113.954	80.001	19.996	103.711	20.008	0.352	0.025
22.000	113.955	80.006	19.990	103.710	20.007	0.465	0.042
22.500	113.940	80.004	19.993	103.711	20.008	0.376	0.006
23.000	113.946	80.004	19.993	103.709	20.009	0.315	-0.011
23.500	113.952	80.007	19.992	103.710	20.006	0.498	0.001
24.000	113.979	80.009	19.991	103.709	20.006	0.500	0.022
24.500	114.012	80.012	19.993	103.710	20.005	0.618	0.047
25.000	113.996	80.007	19.993	103.710	20.005	0.577	0.039
25.500	114.016	80.006	19.994	103.714	20.006	0.526	0.011
26.000	114.023	80.006	19.993	103.717	20.004	0.691	0.016
26.500	113.997	80.009	19.992	103.723	20.007	0.467	0.004
27.000	114.029	80.010	19.993	103.725	20.005	0.569	-0.007
27.500	114.048	80.008	19.993	103.728	20.004	0.648	0.029
28.000	114.026	80.004	19.997	103.725	20.005	0.604	0.024
28.500	114.045	80.005	19.996	103.723	20.008	0.417	-0.003
29.000	114.095	80.009	19.994	103.718	20.006	0.539	0.033
29.500	114.127	80.004	19.995	103.715	20.007	0.476	0.075
30.000	114.102	80.008	19.994	103.715	20.002	0.795	0.045
30.500	114.119	80.009	19.991	103.722	20.005	0.634	-0.000
31.000	114.121	80.006	19.996	103.730	20.002	0.847	0.005
31.500	114.171	80.007	19.993	103.737	20.000	0.930	0.035
32.000	114.189	80.003	19.993	103.750	20.002	0.833	0.060
32.500	114.203	80.008	19.987	103.763	19.999	1.002	0.051
33.000	114.229	80.007	19.995	103.769	20.001	0.878	0.036
33.499	114.247	80.007	19.992	103.777	19.999	1.044	0.042
33.999	114.301	80.005	19.992	103.786	19.996	1.276	0.058
34.500	114.294	80.006	19.992	103.789	19.997	1.180	0.060
35.000	114.304	80.008	19.994	103.790	19.997	1.148	0.025
35.499	114.376	80.008	19.990	103.792	19.996	1.262	0.042
35.999	114.414	80.008	19.992	103.793	19.995	1.355	0.096
36.499	114.412	80.009	19.990	103.793	19.993	1.491	0.073
36.999	114.468	80.008	19.993	103.794	19.995	1.351	0.045
37.499	114.492	80.002	19.993	103.795	19.993	1.479	0.067
37.999	114.514	80.010	19.991	103.796	19.995	1.330	0.063
38.499	114.533	79.996	19.994	103.797	19.992	1.568	0.043
38.999	114.568	80.002	20.000	103.797	19.993	1.499	0.048
39.499	114.637	80.005	19.994	103.793	19.994	1.432	0.080
39.999	114.681	80.006	19.990	103.793	19.988	1.826	0.109
40.499	114.717	80.009	19.991	103.793	19.994	1.423	0.097
40.999	114.748	80.011	19.990	103.796	19.992	1.513	0.073
41.499	114.816	80.007	19.994	103.800	19.990	1.718	0.083
41.999	114.878	80.006	19.993	103.808	19.987	1.885	0.115
42.499	114.902	80.007	19.997	103.816	19.989	1.734	0.108
42.999	114.961	80.009	19.991	103.821	19.989	1.759	0.084
43.499	114.995	80.002	19.996	103.825	19.988	1.834	0.088
43.999	115.012	80.006	19.997	103.827	19.990	1.696	0.072
44.499	115.089	80.003	19.995	103.826	19.989	1.726	0.072
44.999	115.150	80.008	19.994	103.825	19.987	1.878	0.116
45.499	115.183	80.004	19.999	103.826	19.990	1.685	0.116
45.999	115.240	80.012	19.989	103.824	19.989	1.732	0.092
46.500	115.292	80.008	19.995	103.829	19.984	2.116	0.100
47.001	115.365	80.004	19.994	103.832	19.984	2.148	0.117
47.500	115.437	80.007	19.998	103.836	19.983	2.193	0.135
47.999	115.506	80.006	19.996	103.839	19.982	2.280	0.143
48.499	115.544	80.007	19.991	103.846	19.981	2.311	0.124
48.999	115.622	80.009	19.996	103.850	19.981	2.370	0.112
49.499	115.715	80.009	19.991	103.856	19.980	2.433	0.144
49.999	115.771	80.005	19.994	103.862	19.982	2.279	0.161
50.499	115.839	80.006	19.994	103.866	19.982	2.285	0.136
50.999	115.919	80.003	19.993	103.868	19.978	2.547	0.136
51.499	115.996	80.008	19.993	103.865	19.979	2.469	0.152
51.999	116.048	80.009	19.993	103.860	19.983	2.220	0.143
52.499	116.117	80.004	19.996	103.856	19.978	2.549	0.126
52.999	116.222	79.998	19.994	103.855	19.976	2.726	0.147
53.499	116.272	80.015	19.991	103.853	19.978	2.553	0.164
53.999	116.363	80.012	19.991	103.853	19.979	2.508	0.148
54.499	116.456	80.012	19.991	103.857	19.977	2.600	0.163
54.999	116.530	80.016	19.991	103.857	19.979	2.463	0.175
55.500	116.601	80.015	19.994	103.859	19.979	2.508	0.156
56.000	116.708	80.000	19.997	103.860	19.977	2.593	0.162
56.499	116.811	80.004	19.996	103.863	19.978	2.528	0.194
56.999	116.914	80.009	19.992	103.863	19.981	2.346	0.208
57.500	117.029	80.010	19.992	103.865	19.973	2.902	0.212
58.000	117.073	80.009	19.991	103.865	19.978	2.551	0.188
58.499	117.183	80.011	19.995	103.866	19.976	2.715	0.157
58.999	117.280	80.006	19.994	103.865	19.978	2.539	0.181
59.499	117.382	80.007	19.999	103.866	19.977	2.636	0.203
59.999	117.491	80.010	19.996	103.864	19.977	2.661	0.205
60.499	117.586	80.004	19.991	103.861	19.977	2.655	0.207
60.999	117.662	80.004	19.995	103.860	19.977	2.648	0.187
61.499	117.765	80.008	19.992	103.858	19.977	2.610	0.175
61.999	117.874	80.012	19.991	103.859	19.977	2.647	0.196
62.500	117.988	80.008	19.994	103.860	19.979	2.516	0.218
63.000	118.072	80.004	19.998	103.861	19.978	2.523	0.210
63.500	118.168	80.010	19.992	103.858	19.974	2.829	0.189
64.000	118.303	80.007	19.994	103.853	19.972	2.959	0.206
64.499	118.399	80.008	19.994	103.851	19.978	2.561	0.231
64.999	118.503	80.007	19.995	103.851	19.973	2.904	0.215
65.499	118.658	80.007	19.994	103.852	19.975	2.746	0.229
65.999	118.735	80.008	19.994	103.855	19.975	2.789	0.245
66.499	118.819	80.011	19.993	103.860	19.974	2.817	0.197
66.999	118.969	80.009	19.994	103.862	19.974	2.823	0.198
67.499	119.041	80.008	19.994	103.860	19.972	2.970	0.228
67.999	119.167	80.010	19.994	103.859	19.976	2.703	0.210
68.499	119.281	80.011	19.994	103.861	19.972	2.961	0.219
68.999	119.397	80.008	19.994	103.859	19.975	2.750	0.235
69.499	119.516	80.008	19.995	103.854	19.973	2.943	0.232
69.999	119.637	80.011	19.994	103.852	19.974	2.821	0.237
70.499	119.774	80.010	19.994	103.850	19.970	3.131	0.249
70.999	119.932	80.012	19.993	103.847	19.973	2.944	0.277
71.499	119.975	80.010	19.994	103.846	19.972	3.001	0.248
72.000	120.111	80.009	19.994	103.847	19.971	3.044	0.190
72.500	120.219	80.006	19.994	103.845	19.973	2.928	0.211
72.999	120.376	80.010	19.995	103.844	19.977	2.644	0.254
73.499	120.459	80.008	19.994	103.845	19.974	2.871	0.252
73.999	120.619	80.009	19.994	103.846	19.976	2.729	0.242
74.499	120.683	80.008	19.997	103.845	19.975	2.762	0.234
74.999	120.874	80.009	19.994	103.845	19.976	2.701	0.240
75.500	120.961	80.008	19.995	103.846	19.975	2.764	0.267
76.000	121.088	80.009	19.995	103.845	19.975	2.796	0.246
76.499	121.232	80.008	19.995	103.842	19.971	3.030	0.243
76.999	121.340	80.008	19.994	103.842	19.972	2.975	0.261
77.499	121.465	80.006	19.995	103.842	19.971	3.097	0.242
77.999	121.577	80.008	19.997	103.842	19.976	2.735	0.234
78.499	121.726	80.011	19.993	103.843	19.973	2.952	0.249
78.999	121.863	80.005	19.995	103.849	19.971	3.042	0.274
79.499	121.954	80.007	19.994	103.854	19.972	2.964	0.257
79.999	122.080	80.006	19.996	103.859	19.972	2.995	0.222
80.499	122.235	80.008	19.992	103.862	19.972	3.021	0.249
80.999	122.366	80.004	19.997	103.865	19.970	3.109	0.284
81.499	122.476	80.007	19.994	103.865	19.974	2.820	0.263
81.999	122.608	80.003	19.998	103.866	19.970	3.139	0.241
82.499	122.770	80.004	19.998	103.865	19.975	2.741	0.268
82.999	122.897	80.008	19.994	103.865	19.970	3.118	0.292
83.500	123.029	80.006	19.994	103.865	19.970	3.120	0.274
84.000	123.161	80.007	19.995	103.866	19.970	3.165	0.262
84.499	123.280	80.006	19.995	103.865	19.970	3.100	0.257
84.999	123.418	80.004	19.994	103.867	19.971	3.075	0.254
85.499	123.596	80.004	19.996	103.867	19.970	3.146	0.287
85.999	123.697	80.007	19.996	103.866	19.970	3.120	0.298
86.499	123.861	80.007	19.993	103.865	19.969	3.187	0.272
86.999	124.010	80.007	19.993	103.866	19.969	3.232	0.289
87.499	124.161	80.006	19.994	103.867	19.974	2.850	0.306
87.999	124.298	80.003	19.993	103.867	19.967	3.333	0.294
88.499	124.439	80.009	19.993	103.870	19.970	3.140	0.283
88.999	124.558	80.003	19.995	103.874	19.966	3.414	0.269
89.499	124.737	80.002	19.997	103.875	19.967	3.345	0.280
89.999	124.855	80.007	19.990	103.874	19.969	3.185	0.298
90.499	125.014	80.006	19.992	103.875	19.966	3.400	0.287
90.999	125.137	80.006	19.992	103.875	19.968	3.286	0.280
91.499	125.286	80.003	19.995	103.873	19.964	3.601	0.277
91.999	125.458	80.005	19.995	103.873	19.961	3.779	0.296
92.499	125.641	80.010	19.989	103.880	19.967	3.378	0.338
92.999	125.772	80.010	19.990	103.887	19.965	3.510	0.335
93.499	125.884	80.012	19.992	103.893	19.965	3.477	0.278
93.999	126.049	80.006	19.992	103.898	19.962	3.729	0.260
94.499	126.218	80.011	19.986	103.902	19.967	3.375	0.306
94.999	126.367	80.008	19.997	103.904	19.966	3.418	0.326
95.499	126.545	80.010	19.992	103.902	19.960	3.852	0.323
95.999	126.698	80.003	19.994	103.902	19.962	3.689	0.329
96.499	126.854	80.009	19.989	103.903	19.962	3.690	0.320
96.999	127.011	80.006	19.997	103.906	19.961	3.783	0.312
97.500	127.157	80.003	19.995	103.906	19.962	3.751	0.308
98.000	127.317	80.006	19.993	103.906	19.958	3.986	0.304
98.499	127.494	80.011	19.993	103.907	19.959	3.897	0.321
98.999	127.683	80.010	19.992	103.906	19.959	3.913	0.351
99.499	127.850	80.012	19.991	103.907	19.959	3.959	0.361
99.999	127.999	80.006	19.992	103.909	19.960	3.872	0.336
100.499	128.168	80.009	19.994	103.909	19.959	3.905	0.317
100.999	128.298	80.006	19.996	103.910	19.958	4.031	0.309
101.500	128.505	80.004	19.994	103.910	19.959	3.925	0.318
102.000	128.690	80.009	19.991	103.909	19.963	3.655	0.364
102.499	128.861	80.008	19.994	103.909	19.959	3.907	0.373
102.999	129.005	80.006	19.992	103.909	19.958	4.026	0.336
103.500	129.156	80.008	19.993	103.908	19.953	4.333	0.305
104.001	129.337	80.006	19.997	103.909	19.957	4.095	0.314
104.500	129.514	80.007	19.993	103.909	19.957	4.071	0.346
104.999	129.660	80.006	19.993	103.913	19.956	4.164	0.341
105.499	129.825	80.011	19.993	103.919	19.954	4.302	0.317
105.999	130.009	80.005	19.993	103.923	19.955	4.215	0.329
106.499	130.203	80.010	19.992	103.927	19.954	4.294	0.364
106.999	130.380	80.007	19.994	103.929	19.956	4.136	0.375
107.499	130.550	80.006	19.994	103.927	19.958	4.017	0.359
107.999	130.715	80.005	19.993	103.923	19.954	4.323	0.340
108.499	130.937	80.006	19.991	103.922	19.955	4.218	0.360
109.000	131.098	80.007	19.993	103.923	19.955	4.213	0.385
109.500	131.286	80.007	19.993	103.927	19.955	4.187	0.366
109.999	131.458	80.008	19.993	103.928	19.956	4.179	0.355
110.499	131.605	80.009	19.994	103.929	19.957	4.067	0.340
110.999	131.802	80.005	19.995	103.928	19.955	4.245	0.332
111.500	132.006	80.007	19.996	103.925	19.953	4.361	0.373
112.000	132.187	80.004	19.995	103.921	19.953	4.365	0.393
112.499	132.364	80.002	19.994	103.924	19.952	4.456	0.372
112.999	132.557	80.006	20.000	103.928	19.951	4.481	0.364
113.499	132.751	80.005	19.995	103.928	19.953	4.349	0.378
113.999	132.959	80.007	19.998	103.932	19.951	4.503	0.394
114.499	133.156	80.009	19.998	103.934	19.951	4.518	0.404
114.999	133.327	80.008	19.992	103.934	19.951	4.485	0.386
115.499	133.532	80.005	19.993	103.934	19.953	4.361	0.372
115.999	133.743	80.008	19.995	103.937	19.951	4.542	0.396
116.499	133.903	80.011	19.991	103.937	19.951	4.523	0.394
116.999	134.108	80.006	19.995	103.933	19.950	4.613	0.368
117.500	134.299	80.004	19.992	103.928	19.946	4.903	0.380
118.000	134.469	80.004	19.995	103.923	19.950	4.580	0.378
118.499	134.666	80.009	19.994	103.920	19.950	4.588	0.364
119.000	134.843	80.006	19.993	103.917	19.950	4.555	0.370
119.500	135.068	80.008	19.990	103.918	19.950	4.565	0.388
119.999	135.284	80.008	19.991	103.921	19.950	4.557	0.422
120.499	135.493	80.006	19.993	103.926	19.950	4.573	0.433
120.999	135.701	80.008	19.993	103.928	19.949	4.663	0.421
121.499	135.890	80.012	19.994	103.932	19.948	4.703	0.407
121.999	136.131	80.007	19.991	103.935	19.950	4.551	0.414
122.499	136.328	80.007	19.991	103.938	19.951	4.525	0.434
122.999	136.523	80.010	19.990	103.936	19.953	4.389	0.415
123.499	136.735	80.009	19.993	103.932	19.949	4.657	0.399
123.999	136.957	80.008	19.993	103.927	19.950	4.572	0.420
124.499	137.164	80.007	19.995	103.925	19.947	4.789	0.432
124.999	137.391	80.008	19.991	103.926	19.949	4.679	0.432
125.499	137.584	80.007	19.991	103.926	19.947	4.811	0.427
125.999	137.724	80.010	19.991	103.929	19.949	4.655	0.377
126.499	137.977	80.008	19.997	103.935	19.947	4.823	0.363
126.999	138.178	80.007	19.990	103.935	19.948	4.720	0.423
127.499	138.409	80.009	19.994	103.934	19.944	4.984	0.442
127.999	138.644	80.008	19.992	103.933	19.944	5.006	0.449
128.500	138.835	80.006	19.992	103.935	19.948	4.761	0.447
129.000	139.067	80.008	19.988	103.934	19.945	4.939	0.425
129.500	139.292	80.012	19.988	103.938	19.946	4.902	0.439
130.000	139.509	80.005	19.996	103.940	19.946	4.910	0.449
130.500	139.704	80.017	19.987	103.943	19.948	4.730	0.428
131.000	139.894	80.010	19.991	103.945	19.945	4.931	0.399
131.500	140.113	80.009	19.993	103.946	19.946	4.860	0.397
132.000	140.361	80.008	19.997	103.945	19.946	4.880	0.438
132.500	140.597	80.010	19.995	103.944	19.948	4.736	0.476
133.000	140.826	80.008	19.995	103.942	19.946	4.838	0.474
133.500	141.022	80.009	19.991	103.938	19.942	5.148	0.445
134.000	141.247	80.008	19.995	103.939	19.942	5.191	0.423
134.500	141.434	80.010	19.993	103.937	19.944	4.984	0.417
135.000	141.643	80.012	19.997	103.938	19.942	5.156	0.404
135.500	141.954	80.012	19.987	103.938	19.941	5.223	0.458
136.000	142.183	80.006	19.996	103.940	19.943	5.071	0.531
136.500	142.339	80.011	19.994	103.940	19.942	5.138	0.463
137.000	142.597	80.007	19.994	103.942	19.942	5.130	0.399
137.500	142.848	80.006	19.993	103.939	19.942	5.166	0.461
138.000	143.066	80.009	19.994	103.940	19.940	5.337	0.489
138.500	143.282	80.002	19.993	103.938	19.944	5.022	0.451
139.000	143.522	80.007	19.995	103.937	19.941	5.209	0.445
139.500	143.737	80.001	19.993	103.938	19.938	5.446	0.456
140.000	143.989	80.008	19.992	103.940	19.938	5.473	0.462
140.500	144.223	80.009	19.991	103.942	19.940	5.335	0.477
141.000	144.460	80.007	19.994	103.944	19.938	5.422	0.478
141.500	144.674	80.007	19.995	103.945	19.939	5.381	0.461
142.000	144.885	80.007	19.997	103.945	19.941	5.207	0.438
142.500	145.137	80.007	19.996	103.946	19.940	5.298	0.444
143.000	145.352	80.006	19.994	103.941	19.939	5.406	0.465
143.500	145.604	80.008	19.994	103.940	19.938	5.442	0.467
144.000	145.834	80.007	19.996	103.940	19.939	5.410	0.474
144.500	146.071	80.008	19.994	103.940	19.940	5.290	0.474
145.000	146.288	80.008	19.994	103.940	19.940	5.278	0.461
145.500	146.532	80.008	19.993	103.943	19.940	5.343	0.458
146.000	146.766	80.007	19.997	103.941	19.940	5.306	0.470
146.500	146.983	80.006	19.995	103.941	19.942	5.176	0.464
147.000	147.248	80.005	19.997	103.940	19.937	5.554	0.466
147.500	147.469	80.008	19.994	103.940	19.940	5.304	0.484
148.000	147.716	80.005	19.991	103.941	19.939	5.353	0.477
148.500	147.927	80.013	19.993	103.943	19.941	5.227	0.464
149.000	148.176	80.000	20.003	103.943	19.940	5.302	0.459
149.500	148.448	80.004	19.996	103.940	19.938	5.428	0.490
150.000	148.642	80.006	19.992	103.939	19.940	5.278	0.493
150.500	148.888	80.012	19.991	103.939	19.939	5.368	0.453
151.000	149.156	80.015	19.990	103.938	19.940	5.282	0.477
151.500	149.365	80.007	19.995	103.940	19.941	5.226	0.496
152.000	149.631	80.010	19.995	103.943	19.940	5.299	0.476
152.500	149.863	80.006	19.999	103.944	19.938	5.487	0.487
153.000	150.120	80.007	19.995	103.943	19.940	5.335	0.494
153.500	150.384	80.008	19.995	103.941	19.937	5.497	0.505
154.000	150.607	80.006	19.995	103.937	19.937	5.546	0.504
154.500	150.878	80.008	19.993	103.937	19.938	5.467	0.490
155.000	151.132	80.009	19.993	103.937	19.937	5.503	0.509
155.500	151.339	80.012	19.992	103.936	19.936	5.564	0.493
156.000	151.585	80.010	19.994	103.938	19.938	5.483	0.458
156.500	151.853	80.007	19.995	103.941	19.937	5.522	0.484
157.000	152.103	80.009	19.992	103.942	19.939	5.357	0.516
157.500	152.343	80.010	19.993	103.942	19.935	5.649	0.504
158.000	152.581	80.007	19.993	103.943	19.937	5.552	0.484
158.500	152.861	80.008	19.993	103.942	19.935	5.655	0.498
159.000	153.118	80.009	19.992	103.943	19.934	5.773	0.528
159.500	153.324	80.011	19.993	103.943	19.934	5.743	0.500
160.000	153.613	80.011	19.993	103.945	19.932	5.893	0.479
160.500	153.801	80.009	19.994	103.941	19.935	5.675	0.486
161.000	154.066	80.006	19.994	103.936	19.934	5.761	0.465
161.500	154.308	80.007	19.994	103.931	19.932	5.919	0.480
162.000	154.601	80.009	19.993	103.929	19.935	5.670	0.521
162.500	154.821	80.004	19.994	103.931	19.934	5.749	0.524
163.000	155.044	80.005	19.994	103.930	19.932	5.857	0.478
163.500	155.316	80.008	19.993	103.935	19.931	5.985	0.469
164.000	155.570	80.008	19.992	103.940	19.937	5.547	0.510
164.500	155.845	80.006	19.995	103.941	19.932	5.878	0.528
165.000	156.077	80.008	19.993	103.938	19.934	5.742	0.519
165.500	156.335	80.010	19.994	103.940	19.931	5.980	0.499
166.000	156.561	80.003	19.993	103.942	19.929	6.116	0.487
166.500	156.830	80.009	19.991	103.936	19.930	6.049	0.489
167.000	157.076	80.006	19.995	103.934	19.930	6.008	0.505
167.500	157.335	80.007	19.992	103.936	19.928	6.146	0.510
168.000	157.579	80.003	19.996	103.938	19.930	6.016	0.505
168.500	157.833	80.005	19.993	103.936	19.931	5.990	0.501
169.000	158.086	80.006	19.997	103.940	19.929	6.086	0.502
169.500	158.323	80.002	19.996	103.941	19.931	5.927	0.498
170.000	158.583	80.007	19.996	103.940	19.932	5.881	0.493
170.500	158.847	80.006	19.993	103.940	19.929	6.084	0.511
171.000	159.104	80.011	19.989	103.942	19.929	6.094	0.523
171.500	159.345	80.003	19.993	103.943	19.926	6.315	0.509
172.000	159.569	80.001	20.000	103.941	19.928	6.175	0.482
172.500	159.852	80.006	19.995	103.938	19.925	6.370	0.486
