Sample ID:	C:\MCC\MCC Cal\Test\Polyester_Bed_Skirt_MCC_30K_min_211209_R3.txt
Sample Weight (mg):	4.35
Heating Rate (C/s):	0.5
Combustor Temp (C):	900
N2 Flow Rate (cc/min):	80
O2 Flow Rate (cc/min):	20
Calibration File:	C:\MCC\MCC Cal\Coeff1 JN10440_30_210304.txt.txt
T Correction Coefficients:	0	1.024463	0
Time Shift (s):	14
*
Time (s)	Temperature (C)	N2 flow rate (cc/min)	O2 flow rate (cc/min)	Flow Rate (cc/min)	Oxygen (%)	HRR (W/g)	Heating rate (C/s)
0.000	109.609	80.006	19.995	103.066	20.115	-0.454	-0.010
0.500	109.578	80.007	19.995	103.067	20.113	-0.298	0.021
1.000	109.608	80.007	19.997	103.071	20.112	-0.271	0.010
1.500	109.532	80.007	19.996	103.076	20.113	-0.294	-0.023
2.000	109.570	80.007	19.996	103.080	20.111	-0.207	-0.042
2.500	109.570	80.007	19.994	103.076	20.110	-0.093	-0.000
3.000	109.593	80.007	20.000	103.073	20.111	-0.174	0.030
3.500	109.575	80.007	19.997	103.071	20.110	-0.075	0.014
4.000	109.573	80.009	19.997	103.071	20.107	0.095	-0.007
4.500	109.566	80.006	19.997	103.070	20.110	-0.142	-0.015
5.000	109.569	80.007	19.995	103.076	20.111	-0.156	-0.006
5.500	109.542	80.006	19.996	103.080	20.111	-0.207	-0.014
6.000	109.564	80.007	19.997	103.078	20.109	-0.057	-0.014
6.500	109.564	80.007	19.996	103.077	20.106	0.170	0.009
7.000	109.564	80.008	19.994	103.079	20.114	-0.391	0.011
7.500	109.569	80.007	19.995	103.075	20.113	-0.322	0.003
8.001	109.556	80.006	19.996	103.071	20.112	-0.231	-0.001
8.500	109.531	80.007	19.994	103.073	20.112	-0.253	-0.023
8.999	109.542	80.008	19.996	103.075	20.110	-0.124	-0.026
9.499	109.516	80.007	19.995	103.074	20.108	0.059	-0.015
9.999	109.533	80.006	19.996	103.071	20.109	-0.032	-0.012
10.499	109.496	80.007	19.994	103.070	20.108	0.022	-0.015
10.999	109.548	80.009	19.995	103.067	20.107	0.114	-0.002
11.500	109.568	80.007	19.995	103.067	20.108	0.014	0.043
12.001	109.550	80.007	19.996	103.066	20.107	0.103	0.037
12.500	109.544	80.008	19.994	103.070	20.111	-0.154	-0.011
13.000	109.571	80.006	19.995	103.073	20.110	-0.124	-0.001
13.500	109.566	80.007	19.995	103.077	20.109	-0.020	0.021
14.000	109.531	80.007	19.996	103.079	20.111	-0.211	-0.009
14.500	109.586	80.007	19.996	103.082	20.112	-0.225	-0.009
14.999	109.567	80.008	19.996	103.086	20.108	0.008	0.028
15.499	109.516	80.008	19.994	103.090	20.105	0.258	-0.017
15.999	109.530	80.006	19.994	103.094	20.106	0.211	-0.053
16.500	109.561	80.007	19.995	103.095	20.104	0.310	0.004
17.000	109.539	80.007	19.995	103.100	20.104	0.353	0.027
17.500	109.554	80.009	19.995	103.105	20.103	0.383	0.000
18.000	109.506	80.007	19.995	103.113	20.103	0.434	-0.020
18.500	109.514	80.009	19.994	103.123	20.101	0.544	-0.037
19.000	109.571	80.009	19.994	103.136	20.098	0.786	0.013
19.500	109.538	80.009	19.994	103.149	20.099	0.739	0.045
20.000	109.554	80.009	19.993	103.164	20.095	0.981	0.003
20.500	109.580	80.008	19.995	103.180	20.102	0.514	0.012
21.000	109.596	80.008	19.995	103.192	20.091	1.287	0.042
21.500	109.589	80.008	19.994	103.202	20.094	1.070	0.026
22.000	109.631	80.010	19.995	103.209	20.091	1.320	0.022
22.500	109.657	80.008	19.994	103.216	20.091	1.303	0.052
23.000	109.615	80.009	19.994	103.221	20.089	1.466	0.026
23.500	109.642	80.008	19.995	103.225	20.089	1.425	-0.015
24.000	109.697	80.009	19.994	103.232	20.090	1.409	0.033
24.500	109.723	80.008	19.994	103.239	20.087	1.616	0.081
25.000	109.738	80.008	19.994	103.244	20.084	1.789	0.061
25.500	109.783	80.009	19.994	103.257	20.080	2.091	0.050
26.000	109.784	80.009	19.995	103.267	20.079	2.199	0.053
26.500	109.819	80.008	19.995	103.253	20.078	2.293	0.041
27.000	109.864	80.008	19.995	103.241	20.076	2.435	0.058
27.500	109.894	80.006	19.993	103.234	20.079	2.159	0.078
28.000	109.963	80.007	19.994	103.227	20.078	2.287	0.087
28.500	110.006	80.008	19.995	103.228	20.075	2.498	0.105
29.000	110.041	80.007	19.993	103.252	20.072	2.705	0.095
29.500	110.100	80.007	19.994	103.298	20.073	2.664	0.086
30.000	110.111	80.006	19.994	103.328	20.072	2.687	0.082
30.500	110.203	80.007	19.995	103.339	20.076	2.443	0.086
31.000	110.227	80.007	19.995	103.343	20.074	2.581	0.110
31.500	110.280	80.007	19.994	103.341	20.072	2.713	0.097
32.000	110.384	80.007	19.995	103.316	20.071	2.812	0.117
32.499	110.447	80.006	19.995	103.301	20.074	2.575	0.162
33.000	110.475	80.007	19.994	103.300	20.073	2.666	0.129
33.501	110.570	80.007	19.994	103.301	20.072	2.733	0.107
34.000	110.611	80.006	19.994	103.309	20.071	2.806	0.130
34.499	110.724	80.007	19.995	103.313	20.069	2.930	0.145
35.000	110.786	80.006	19.994	103.317	20.068	3.003	0.164
35.500	110.862	80.007	19.994	103.320	20.068	2.995	0.157
35.999	110.943	80.007	19.994	103.323	20.072	2.682	0.147
36.499	111.024	80.007	19.995	103.321	20.067	3.098	0.159
36.999	111.132	80.007	19.995	103.322	20.068	2.991	0.176
37.500	111.193	80.006	19.994	103.322	20.069	2.944	0.179
38.001	111.267	80.005	19.994	103.323	20.070	2.879	0.152
38.500	111.343	80.005	19.995	103.324	20.066	3.125	0.143
39.000	111.436	80.005	19.994	103.326	20.070	2.877	0.160
39.501	111.516	80.006	19.994	103.328	20.067	3.044	0.171
40.000	111.589	80.006	19.993	103.328	20.065	3.249	0.163
40.499	111.696	80.007	19.994	103.328	20.068	3.024	0.166
40.999	111.824	80.005	19.994	103.329	20.068	3.013	0.207
41.500	111.918	80.006	19.993	103.329	20.069	2.900	0.229
42.000	112.007	80.005	19.996	103.329	20.069	2.932	0.203
42.499	112.099	80.006	19.994	103.329	20.067	3.093	0.182
42.999	112.194	80.006	19.995	103.327	20.067	3.046	0.183
43.499	112.326	80.007	19.995	103.326	20.066	3.174	0.207
43.999	112.408	80.005	19.994	103.326	20.065	3.196	0.220
44.499	112.545	80.006	19.994	103.325	20.062	3.444	0.216
44.999	112.649	80.007	19.995	103.322	20.067	3.113	0.230
45.500	112.782	80.006	19.994	103.321	20.066	3.182	0.239
46.001	112.871	80.007	19.993	103.318	20.067	3.068	0.230
46.500	112.994	80.006	19.994	103.318	20.065	3.249	0.217
47.000	113.112	80.007	19.995	103.315	20.070	2.869	0.226
47.500	113.224	80.007	19.995	103.317	20.065	3.204	0.236
48.000	113.362	80.009	19.994	103.319	20.069	2.959	0.240
48.500	113.465	80.008	19.994	103.321	20.067	3.103	0.245
49.000	113.562	80.007	19.996	103.321	20.063	3.340	0.220
49.500	113.686	80.007	19.995	103.323	20.068	3.017	0.211
49.999	113.891	80.008	19.994	103.324	20.068	3.040	0.275
50.499	113.950	80.008	19.994	103.325	20.064	3.269	0.297
50.999	114.108	80.007	19.995	103.324	20.066	3.168	0.241
51.499	114.247	80.007	19.995	103.324	20.063	3.411	0.257
51.999	114.377	80.006	19.994	103.324	20.065	3.249	0.283
52.499	114.500	80.006	19.993	103.324	20.068	3.026	0.261
52.999	114.638	80.008	19.995	103.324	20.069	2.955	0.257
53.499	114.745	80.007	19.994	103.324	20.066	3.172	0.253
53.999	114.910	80.007	19.995	103.324	20.067	3.062	0.258
54.499	115.084	80.006	19.996	103.324	20.064	3.275	0.305
55.000	115.171	80.007	19.994	103.324	20.067	3.105	0.301
55.500	115.356	80.007	19.995	103.324	20.062	3.424	0.267
55.999	115.493	80.008	19.995	103.321	20.068	3.009	0.297
56.499	115.606	80.007	19.994	103.321	20.067	3.089	0.286
56.999	115.735	80.006	19.993	103.321	20.067	3.099	0.245
57.499	115.876	80.006	19.996	103.320	20.067	3.093	0.256
58.000	116.025	80.007	19.994	103.321	20.069	2.932	0.281
58.500	116.154	80.006	19.996	103.323	20.067	3.085	0.284
58.999	116.275	80.006	19.994	103.323	20.065	3.192	0.264
59.499	116.440	80.008	19.995	103.322	20.068	3.028	0.268
60.000	116.616	80.005	19.995	103.323	20.065	3.194	0.313
60.500	116.742	80.006	19.996	103.323	20.063	3.403	0.322
60.999	116.885	80.005	19.996	103.324	20.067	3.099	0.286
61.499	117.097	80.006	19.994	103.324	20.067	3.099	0.312
61.999	117.200	80.007	19.996	103.325	20.069	2.957	0.335
62.499	117.387	80.006	19.995	103.325	20.067	3.076	0.302
62.999	117.510	80.006	19.996	103.325	20.066	3.180	0.300
63.499	117.690	80.006	19.995	103.325	20.064	3.276	0.307
63.999	117.899	80.007	19.995	103.325	20.066	3.146	0.347
64.500	118.005	80.004	19.995	103.325	20.068	2.997	0.352
65.000	118.151	80.006	19.995	103.324	20.062	3.426	0.283
65.501	118.309	80.004	19.995	103.325	20.067	3.093	0.278
66.001	118.489	80.006	19.995	103.325	20.064	3.324	0.321
66.500	118.642	80.005	19.996	103.326	20.065	3.223	0.335
67.001	118.797	80.005	19.996	103.326	20.065	3.229	0.321
67.501	118.969	80.005	19.996	103.328	20.065	3.247	0.318
67.999	119.110	80.006	19.995	103.327	20.062	3.422	0.320
68.499	119.278	80.005	19.997	103.327	20.064	3.316	0.311
68.999	119.440	80.007	19.996	103.326	20.064	3.304	0.319
69.500	119.651	80.005	19.995	103.326	20.064	3.326	0.351
70.000	119.813	80.005	19.995	103.325	20.066	3.133	0.373
70.500	120.036	80.007	19.998	103.325	20.064	3.272	0.379
71.001	120.170	80.006	19.996	103.325	20.067	3.113	0.371
71.500	120.313	80.006	19.995	103.326	20.069	2.959	0.317
71.999	120.539	80.007	19.997	103.326	20.065	3.243	0.323
72.499	120.696	80.005	19.996	103.326	20.064	3.276	0.375
72.999	120.838	80.006	19.994	103.326	20.066	3.130	0.341
73.499	121.058	80.007	19.997	103.326	20.066	3.162	0.331
73.999	121.194	80.006	19.997	103.327	20.064	3.335	0.359
74.500	121.419	80.007	19.995	103.329	20.064	3.274	0.359
75.001	121.593	80.006	19.998	103.332	20.065	3.207	0.380
75.501	121.749	80.007	19.997	103.334	20.068	3.028	0.364
76.001	121.926	80.007	19.995	103.338	20.068	3.036	0.332
76.501	122.158	80.008	19.996	103.337	20.067	3.071	0.372
77.000	122.343	80.009	19.995	103.335	20.067	3.113	0.413
77.500	122.521	80.008	19.996	103.332	20.068	2.994	0.389
78.000	122.703	80.006	19.992	103.330	20.066	3.189	0.362
78.499	122.883	80.008	19.992	103.326	20.066	3.191	0.361
78.999	123.046	80.008	19.994	103.326	20.066	3.181	0.352
79.499	123.275	80.009	19.995	103.327	20.065	3.252	0.367
79.999	123.450	80.009	19.996	103.329	20.067	3.104	0.398
80.499	123.643	80.008	19.995	103.330	20.062	3.443	0.386
80.999	123.805	80.008	19.993	103.330	20.064	3.282	0.362
81.499	124.007	80.008	19.994	103.332	20.061	3.511	0.359
82.000	124.190	80.008	19.995	103.332	20.065	3.221	0.374
82.501	124.401	80.009	19.993	103.336	20.064	3.313	0.389
83.000	124.584	80.009	19.994	103.339	20.064	3.291	0.394
83.499	124.787	80.008	19.994	103.340	20.065	3.193	0.390
83.999	125.010	80.008	19.996	103.340	20.064	3.301	0.406
84.500	125.198	80.008	19.995	103.338	20.060	3.569	0.418
85.000	125.391	80.007	19.993	103.338	20.063	3.369	0.396
85.499	125.588	80.007	19.994	103.336	20.064	3.272	0.386
85.999	125.773	80.009	19.994	103.337	20.065	3.227	0.386
86.499	125.998	80.007	19.994	103.337	20.063	3.347	0.396
87.000	126.215	80.006	19.993	103.337	20.064	3.312	0.426
87.500	126.381	80.007	19.996	103.335	20.063	3.398	0.413
87.999	126.589	80.006	19.994	103.338	20.065	3.243	0.379
88.499	126.822	80.007	19.996	103.338	20.064	3.276	0.407
88.999	126.984	80.007	19.996	103.345	20.066	3.148	0.417
89.499	127.226	80.007	19.997	103.350	20.061	3.538	0.399
89.999	127.418	80.007	19.995	103.352	20.064	3.297	0.419
90.499	127.638	80.006	19.996	103.351	20.064	3.329	0.423
91.000	127.819	80.007	19.995	103.350	20.064	3.313	0.407
91.501	128.069	80.006	19.996	103.343	20.064	3.284	0.416
92.000	128.228	80.007	19.994	103.342	20.064	3.278	0.420
92.499	128.449	80.008	19.994	103.340	20.061	3.493	0.394
92.999	128.635	80.006	19.996	103.344	20.064	3.307	0.394
93.499	128.868	80.006	19.995	103.348	20.061	3.514	0.413
93.999	129.137	80.006	19.995	103.353	20.062	3.422	0.461
94.499	129.295	80.006	19.994	103.355	20.066	3.146	0.465
94.999	129.486	80.005	19.995	103.356	20.065	3.238	0.388
95.499	129.714	80.007	19.993	103.351	20.067	3.098	0.384
95.999	129.899	80.006	19.995	103.344	20.061	3.498	0.416
96.499	130.108	80.007	19.995	103.340	20.062	3.465	0.404
96.999	130.296	80.005	19.996	103.336	20.063	3.351	0.396
97.499	130.552	80.007	19.996	103.336	20.064	3.313	0.420
97.999	130.762	80.005	19.996	103.337	20.066	3.173	0.455
98.500	130.967	80.007	19.993	103.338	20.065	3.254	0.441
99.000	131.161	80.007	19.997	103.340	20.063	3.341	0.407
99.499	131.450	80.007	19.997	103.345	20.067	3.099	0.441
100.000	131.626	80.008	19.994	103.347	20.067	3.089	0.474
100.500	131.877	80.007	19.995	103.347	20.065	3.219	0.446
100.999	132.150	80.008	19.996	103.353	20.067	3.109	0.476
101.500	132.299	80.006	19.996	103.355	20.067	3.083	0.473
102.000	132.480	80.008	19.995	103.352	20.070	2.857	0.376
102.499	132.712	80.008	19.997	103.348	20.064	3.286	0.371
102.999	132.973	80.009	19.995	103.349	20.068	3.004	0.453
103.499	133.181	80.007	19.995	103.346	20.065	3.266	0.481
103.999	133.409	80.009	19.996	103.346	20.067	3.087	0.452
104.499	133.635	80.007	19.995	103.346	20.062	3.428	0.445
105.000	133.842	80.009	19.993	103.352	20.067	3.116	0.443
105.501	134.109	80.009	19.994	103.354	20.067	3.113	0.454
106.000	134.298	80.010	19.996	103.355	20.063	3.343	0.465
106.500	134.501	80.007	19.994	103.352	20.064	3.286	0.424
107.001	134.774	80.007	19.995	103.349	20.062	3.418	0.434
107.500	134.982	80.008	19.994	103.345	20.065	3.249	0.479
107.999	135.191	80.008	19.994	103.346	20.062	3.485	0.449
108.499	135.370	80.009	19.995	103.347	20.070	2.865	0.402
108.999	135.643	80.008	19.994	103.348	20.069	2.961	0.420
109.500	135.867	80.009	19.994	103.353	20.068	3.026	0.475
110.001	136.088	80.008	19.994	103.354	20.067	3.083	0.471
110.500	136.315	80.008	19.993	103.349	20.063	3.377	0.446
111.000	136.535	80.007	19.994	103.344	20.067	3.111	0.448
111.501	136.729	80.008	19.994	103.346	20.068	3.024	0.431
112.000	137.031	80.009	19.995	103.342	20.073	2.624	0.455
112.499	137.264	80.009	19.994	103.339	20.069	2.918	0.515
112.999	137.489	80.006	19.995	103.340	20.067	3.101	0.496
113.499	137.732	80.008	19.995	103.340	20.066	3.125	0.463
113.999	137.956	80.007	19.994	103.341	20.066	3.186	0.467
114.499	138.192	80.006	19.993	103.345	20.066	3.134	0.464
114.999	138.419	80.007	19.996	103.348	20.063	3.412	0.462
115.500	138.635	80.006	19.993	103.348	20.063	3.390	0.453
116.000	138.859	80.006	19.996	103.349	20.063	3.384	0.441
116.499	139.116	80.005	19.995	103.343	20.062	3.432	0.461
116.999	139.348	80.006	19.994	103.341	20.060	3.599	0.485
117.499	139.595	80.005	19.996	103.339	20.064	3.323	0.484
117.999	139.817	80.007	19.994	103.335	20.063	3.376	0.474
118.499	140.088	80.006	19.996	103.336	20.065	3.229	0.481
118.999	140.279	80.006	19.995	103.337	20.063	3.412	0.478
119.499	140.518	80.006	19.994	103.333	20.062	3.451	0.446
120.000	140.750	80.005	19.995	103.331	20.066	3.128	0.450
120.500	141.002	80.007	19.993	103.331	20.066	3.174	0.478
120.999	141.206	80.006	19.996	103.328	20.063	3.355	0.470
121.499	141.398	80.006	19.993	103.330	20.066	3.128	0.426
122.000	141.667	80.005	19.995	103.331	20.061	3.546	0.429
122.500	141.880	80.003	19.994	103.333	20.064	3.306	0.472
122.999	142.134	80.005	19.996	103.334	20.062	3.424	0.475
123.499	142.382	80.005	19.995	103.334	20.065	3.211	0.485
124.001	142.704	80.006	19.994	103.333	20.065	3.225	0.536
124.501	142.907	80.006	19.997	103.334	20.064	3.304	0.548
124.999	143.155	80.004	19.995	103.339	20.065	3.201	0.488
125.499	143.388	80.006	19.995	103.341	20.063	3.393	0.466
125.999	143.611	80.007	19.994	103.343	20.067	3.091	0.468
126.499	143.869	80.005	19.996	103.340	20.068	3.020	0.468
126.999	144.172	80.006	19.996	103.340	20.066	3.162	0.521
127.499	144.363	80.006	19.997	103.339	20.065	3.204	0.528
127.999	144.650	80.005	19.998	103.344	20.066	3.129	0.487
128.500	144.823	80.007	19.997	103.345	20.065	3.265	0.469
129.000	145.091	80.004	19.995	103.349	20.065	3.225	0.450
129.500	145.281	80.007	19.996	103.350	20.069	2.924	0.450
130.000	145.556	80.007	19.995	103.347	20.068	3.028	0.462
130.500	145.804	80.008	19.994	103.341	20.068	3.014	0.494
131.000	146.052	80.006	19.996	103.338	20.063	3.343	0.510
131.500	146.302	80.006	19.994	103.339	20.067	3.077	0.497
132.000	146.555	80.007	19.995	103.339	20.066	3.168	0.500
132.500	146.841	80.007	19.994	103.337	20.064	3.288	0.521
133.000	147.040	80.004	19.994	103.337	20.063	3.343	0.512
133.500	147.293	80.008	19.995	103.336	20.061	3.497	0.468
134.000	147.574	80.006	19.997	103.336	20.064	3.292	0.492
134.500	147.814	80.007	19.995	103.337	20.061	3.495	0.527
135.000	148.049	80.005	19.996	103.337	20.067	3.074	0.498
135.500	148.317	80.005	19.998	103.338	20.062	3.444	0.489
136.000	148.539	80.007	19.996	103.336	20.062	3.471	0.496
136.500	148.796	80.006	19.996	103.332	20.063	3.381	0.485
137.000	149.041	80.006	19.996	103.327	20.067	3.097	0.491
137.500	149.323	80.007	19.994	103.326	20.066	3.176	0.515
138.000	149.551	80.008	19.995	103.325	20.064	3.278	0.519
138.500	149.822	80.007	19.995	103.325	20.066	3.135	0.504
139.000	150.084	80.006	19.996	103.324	20.063	3.391	0.516
139.500	150.338	80.008	19.995	103.325	20.062	3.483	0.524
140.000	150.564	80.008	19.992	103.326	20.065	3.221	0.498
140.500	150.845	80.007	19.995	103.328	20.065	3.227	0.494
141.000	151.063	80.007	19.995	103.329	20.063	3.383	0.503
141.500	151.334	80.006	19.995	103.331	20.064	3.290	0.494
142.000	151.589	80.007	19.995	103.331	20.063	3.407	0.508
142.500	151.821	80.006	19.995	103.333	20.067	3.083	0.507
143.000	152.073	80.007	19.995	103.337	20.065	3.225	0.485
143.500	152.348	80.006	19.995	103.337	20.065	3.217	0.505
144.000	152.570	80.006	19.994	103.335	20.065	3.255	0.512
144.500	152.858	80.007	19.995	103.334	20.066	3.180	0.504
145.000	153.053	80.006	19.993	103.331	20.067	3.075	0.497
145.500	153.302	80.007	19.994	103.327	20.064	3.304	0.463
146.000	153.576	80.006	19.996	103.326	20.064	3.318	0.483
146.500	153.814	80.007	19.994	103.328	20.063	3.373	0.517
147.000	154.078	80.004	19.995	103.330	20.067	3.046	0.507
147.500	154.277	80.006	19.994	103.332	20.065	3.239	0.482
148.000	154.524	80.005	19.995	103.332	20.066	3.153	0.455
148.500	154.774	80.006	19.993	103.333	20.066	3.156	0.471
149.000	155.021	80.006	19.995	103.332	20.070	2.841	0.497
149.500	155.275	80.007	19.994	103.330	20.067	3.097	0.499
150.000	155.526	80.008	19.993	103.329	20.069	2.928	0.503
150.500	155.792	80.005	19.994	103.329	20.070	2.825	0.511
151.000	156.006	80.005	19.995	103.328	20.067	3.080	0.499
151.500	156.293	80.007	19.995	103.326	20.068	3.036	0.490
152.000	156.553	80.006	19.995	103.325	20.067	3.101	0.524
152.500	156.790	80.005	19.995	103.326	20.067	3.058	0.522
153.000	157.040	80.006	19.995	103.325	20.070	2.835	0.492
153.500	157.279	80.006	19.994	103.327	20.065	3.196	0.488
154.000	157.545	80.006	19.995	103.333	20.066	3.147	0.497
154.500	157.821	80.006	19.995	103.335	20.069	2.969	0.524
155.000	158.093	80.008	19.995	103.335	20.067	3.082	0.545
155.500	158.310	80.006	19.997	103.335	20.067	3.044	0.518
156.000	158.550	80.007	19.997	103.334	20.072	2.719	0.473
156.500	158.814	80.006	19.996	103.326	20.068	3.001	0.481
157.000	159.060	80.006	19.993	103.319	20.067	3.094	0.507
157.500	159.289	80.008	19.994	103.316	20.063	3.342	0.493
158.000	159.556	80.007	19.995	103.314	20.071	2.769	0.486
158.500	159.842	80.007	19.995	103.314	20.073	2.646	0.525
159.000	160.044	80.008	19.995	103.318	20.070	2.851	0.520
159.500	160.323	80.008	19.995	103.324	20.070	2.863	0.484
160.000	160.576	80.008	19.995	103.327	20.072	2.674	0.507
160.500	160.816	80.007	19.993	103.328	20.074	2.589	0.513
161.000	161.097	80.007	19.995	103.326	20.071	2.780	0.507
161.500	161.352	80.008	19.994	103.323	20.072	2.678	0.528
162.000	161.624	80.007	19.997	103.323	20.072	2.723	0.532
162.500	161.837	80.008	19.997	103.323	20.071	2.774	0.506
163.000	162.091	80.008	19.996	103.323	20.069	2.920	0.476
163.500	162.348	80.007	19.997	103.324	20.071	2.780	0.489
164.000	162.605	80.006	19.996	103.326	20.071	2.782	0.512
164.500	162.866	80.009	19.995	103.326	20.070	2.891	0.516
165.000	163.090	80.008	19.994	103.326	20.072	2.682	0.501
165.500	163.371	80.007	19.995	103.325	20.075	2.461	0.495
166.000	163.587	80.008	19.994	103.325	20.072	2.682	0.501
166.500	163.842	80.008	19.994	103.324	20.074	2.528	0.484
167.000	164.131	80.007	19.994	103.318	20.073	2.645	0.507
167.500	164.365	80.008	19.993	103.311	20.074	2.596	0.534
168.000	164.634	80.009	19.997	103.309	20.075	2.521	0.513
168.500	164.856	80.008	19.995	103.309	20.075	2.509	0.497
169.000	165.167	80.009	19.995	103.308	20.072	2.702	0.512
169.500	165.396	80.008	19.994	103.313	20.075	2.491	0.537
170.000	165.686	80.007	19.996	103.320	20.074	2.562	0.530
170.500	165.909	80.007	19.995	103.318	20.071	2.796	0.515
171.000	166.186	80.007	19.995	103.317	20.070	2.830	0.507
171.500	166.437	80.008	19.994	103.312	20.074	2.558	0.514
172.000	166.654	80.006	19.994	103.310	20.075	2.477	0.498
