Sample ID:	C:\MCC\MCC Cal\Test\Gypsum_Wallboard_GypsumCore_MCC_30K_min_211004_R1.txt
Sample Weight (mg):	4.73
Heating Rate (C/s):	0.5
Combustor Temp (C):	900
N2 Flow Rate (cc/min):	80
O2 Flow Rate (cc/min):	20
Calibration File:	C:\MCC\MCC Cal\Coeff1 JN10440_30_210304.txt.txt
T Correction Coefficients:	0	1.024463	0
Time Shift (s):	14
*
Time (s)	Temperature (C)	N2 flow rate (cc/min)	O2 flow rate (cc/min)	Flow Rate (cc/min)	Oxygen (%)	HRR (W/g)	Heating rate (C/s)
0.000	106.812	79.994	19.997	100.627	20.034	-0.092	0.001
0.500	106.816	79.993	19.998	100.627	20.030	0.132	0.010
1.000	106.780	79.994	19.996	100.628	20.031	0.074	-0.011
1.500	106.784	79.994	19.995	100.630	20.033	-0.052	-0.032
2.000	106.807	79.994	19.996	100.629	20.030	0.170	-0.003
2.500	106.800	79.994	19.996	100.628	20.033	-0.065	0.022
3.000	106.792	79.995	19.996	100.627	20.033	-0.054	0.000
3.500	106.799	79.994	19.996	100.624	20.031	0.112	-0.008
4.000	106.800	79.993	19.996	100.622	20.032	0.036	0.004
4.500	106.796	79.995	19.996	100.622	20.030	0.177	0.002
5.000	106.822	79.994	19.996	100.622	20.029	0.212	0.010
5.500	106.824	79.994	19.996	100.623	20.028	0.255	0.025
6.000	106.813	79.993	19.996	100.626	20.031	0.092	0.009
6.500	106.780	79.993	19.997	100.628	20.030	0.148	-0.027
7.000	106.777	79.994	19.996	100.628	20.030	0.127	-0.040
7.500	106.781	79.994	19.995	100.628	20.029	0.244	-0.017
8.000	106.791	79.993	19.996	100.631	20.028	0.298	0.008
8.500	106.799	79.995	19.996	100.636	20.029	0.226	0.016
9.000	106.787	79.994	19.997	100.641	20.027	0.356	0.007
9.500	106.787	79.994	19.996	100.645	20.027	0.385	-0.008
10.000	106.777	79.992	19.996	100.650	20.028	0.291	-0.011
10.500	106.784	79.994	19.998	100.650	20.027	0.336	-0.006
11.001	106.789	79.994	19.996	100.651	20.026	0.389	0.004
11.501	106.775	79.995	19.996	100.654	20.025	0.459	0.001
12.001	106.781	79.995	19.995	100.656	20.026	0.431	-0.008
12.501	106.823	79.993	19.996	100.660	20.024	0.541	0.021
13.000	106.813	79.992	19.995	100.666	20.023	0.601	0.040
13.500	106.795	79.993	19.996	100.668	20.026	0.434	0.002
14.000	106.786	79.996	19.997	100.674	20.024	0.586	-0.028
14.500	106.816	79.993	19.997	100.682	20.021	0.760	-0.003
15.000	106.834	79.994	19.997	100.689	20.020	0.818	0.034
15.500	106.842	79.994	19.997	100.694	20.025	0.519	0.037
16.000	106.863	79.994	19.997	100.702	20.022	0.664	0.027
16.500	106.847	79.994	19.996	100.705	20.022	0.697	0.017
17.000	106.902	79.994	19.997	100.710	20.021	0.775	0.022
17.500	106.876	79.994	19.997	100.711	20.019	0.898	0.034
18.000	106.910	79.994	19.995	100.711	20.017	0.994	0.018
18.500	106.916	79.993	19.996	100.711	20.016	1.099	0.024
19.000	106.900	79.995	19.995	100.718	20.014	1.216	0.015
19.500	106.911	79.995	19.996	100.701	20.017	1.030	-0.008
20.000	106.939	79.994	19.996	100.685	20.013	1.314	0.017
20.500	106.976	79.994	19.998	100.678	20.015	1.176	0.052
21.000	107.008	79.994	19.997	100.680	20.015	1.175	0.067
21.500	107.015	79.993	19.996	100.681	20.014	1.202	0.054
22.000	107.057	79.994	19.996	100.705	20.010	1.470	0.044
22.500	107.049	79.994	19.995	100.754	20.013	1.263	0.041
23.000	107.047	79.994	19.996	100.800	20.011	1.430	0.012
23.500	107.118	79.993	19.996	100.822	20.010	1.459	0.030
24.000	107.180	79.993	19.995	100.829	20.010	1.495	0.101
24.500	107.212	79.995	19.995	100.833	20.005	1.795	0.113
25.000	107.235	79.994	19.995	100.819	20.007	1.667	0.075
25.500	107.283	79.995	19.995	100.800	20.010	1.459	0.063
26.000	107.327	79.994	19.995	100.797	20.006	1.763	0.081
26.500	107.357	79.993	19.995	100.803	20.006	1.765	0.083
27.000	107.413	79.994	19.996	100.806	20.007	1.709	0.080
27.500	107.466	79.995	19.996	100.806	20.004	1.881	0.097
28.000	107.491	79.995	19.994	100.806	20.004	1.900	0.094
28.500	107.529	79.995	19.996	100.804	20.004	1.899	0.070
29.000	107.579	79.994	19.996	100.805	20.003	1.949	0.075
29.500	107.662	79.995	19.995	100.809	20.003	1.922	0.111
30.000	107.701	79.995	19.996	100.808	20.002	2.024	0.128
30.500	107.761	79.996	19.995	100.811	20.004	1.909	0.111
31.000	107.825	79.994	19.995	100.813	20.001	2.076	0.111
31.500	107.885	79.995	19.996	100.814	20.002	2.034	0.124
32.001	107.930	79.995	19.996	100.815	19.999	2.195	0.115
32.500	108.000	79.995	19.995	100.819	20.002	2.009	0.110
33.000	108.064	79.995	19.996	100.820	20.001	2.103	0.124
33.500	108.137	79.997	19.995	100.820	19.999	2.246	0.136
34.000	108.207	79.995	19.995	100.820	19.998	2.284	0.140
34.500	108.289	79.996	19.995	100.820	19.997	2.348	0.147
35.000	108.353	79.996	19.995	100.820	20.001	2.089	0.149
35.500	108.470	79.997	19.995	100.820	20.000	2.172	0.164
36.000	108.523	79.996	19.996	100.819	19.998	2.269	0.176
36.500	108.589	79.996	19.995	100.819	20.000	2.124	0.144
37.000	108.663	79.995	19.996	100.818	19.999	2.201	0.130
37.500	108.752	79.996	19.995	100.818	19.999	2.244	0.152
38.000	108.823	79.996	19.995	100.818	19.999	2.230	0.161
38.501	108.931	79.995	19.996	100.819	20.000	2.132	0.170
39.001	109.023	79.997	19.995	100.820	19.999	2.196	0.190
39.500	109.093	79.995	19.996	100.820	19.998	2.290	0.181
40.000	109.214	79.996	19.995	100.821	19.998	2.307	0.176
40.500	109.275	79.995	19.995	100.821	19.997	2.330	0.187
41.000	109.357	79.995	19.995	100.821	19.997	2.343	0.162
41.500	109.454	79.996	19.996	100.818	19.998	2.300	0.161
42.001	109.565	79.996	19.995	100.817	19.998	2.300	0.194
42.501	109.657	79.995	19.995	100.818	19.998	2.298	0.205
43.000	109.707	79.996	19.996	100.817	19.998	2.305	0.172
43.500	109.854	79.996	19.995	100.818	19.995	2.452	0.170
44.000	109.962	79.996	19.995	100.820	19.993	2.636	0.226
44.500	110.071	79.997	19.995	100.822	19.994	2.522	0.236
45.000	110.198	79.996	19.995	100.828	19.992	2.678	0.226
45.500	110.235	79.995	19.996	100.834	19.993	2.624	0.200
46.000	110.357	79.996	19.996	100.814	19.996	2.447	0.162
46.500	110.478	79.996	19.995	100.800	19.994	2.566	0.201
47.000	110.600	79.996	19.996	100.794	19.993	2.650	0.243
47.500	110.686	79.995	19.995	100.789	19.993	2.643	0.225
48.000	110.813	79.995	19.994	100.813	19.992	2.673	0.210
48.500	110.918	79.996	19.995	100.866	19.992	2.688	0.223
49.000	111.022	79.994	19.995	100.897	19.991	2.722	0.220
49.501	111.144	79.995	19.996	100.914	19.993	2.626	0.217
50.001	111.258	79.996	19.995	100.920	19.994	2.528	0.231
50.501	111.387	79.996	19.996	100.899	19.991	2.760	0.239
51.001	111.524	79.996	19.995	100.875	19.991	2.758	0.254
51.500	111.608	79.997	19.996	100.864	19.993	2.590	0.244
52.000	111.768	79.996	19.996	100.863	19.990	2.804	0.233
52.500	111.888	79.997	19.994	100.863	19.992	2.681	0.262
53.000	112.026	79.996	19.995	100.859	19.988	2.952	0.269
53.500	112.127	79.996	19.995	100.859	19.991	2.766	0.249
54.001	112.244	79.997	19.994	100.860	19.990	2.824	0.229
54.501	112.367	79.996	19.995	100.859	19.990	2.811	0.229
55.001	112.492	79.997	19.995	100.861	19.990	2.818	0.244
55.501	112.633	79.998	19.995	100.866	19.989	2.891	0.257
56.000	112.830	79.996	19.994	100.869	19.984	3.228	0.302
56.500	112.933	79.997	19.995	100.875	19.988	2.956	0.319
57.000	113.100	79.996	19.994	100.879	19.989	2.904	0.285
57.500	113.164	79.996	19.995	100.884	19.989	2.884	0.250
58.000	113.344	79.996	19.994	100.889	19.990	2.846	0.237
58.500	113.528	79.996	19.996	100.891	19.988	2.927	0.304
59.000	113.662	79.997	19.995	100.885	19.986	3.059	0.341
59.500	113.780	79.996	19.994	100.880	19.987	3.032	0.285
60.000	113.949	79.996	19.994	100.874	19.989	2.905	0.270
60.500	114.109	79.998	19.995	100.873	19.987	3.039	0.308
61.000	114.227	79.998	19.995	100.874	19.985	3.168	0.303
61.500	114.399	79.998	19.995	100.878	19.987	3.001	0.284
62.001	114.577	79.998	19.994	100.879	19.987	3.032	0.320
62.501	114.700	79.998	19.995	100.885	19.984	3.224	0.325
63.000	114.851	79.998	19.994	100.887	19.984	3.220	0.288
63.500	115.024	79.998	19.995	100.887	19.985	3.141	0.300
64.001	115.173	79.998	19.995	100.889	19.987	3.029	0.323
64.501	115.317	79.998	19.995	100.892	19.986	3.110	0.307
65.000	115.494	79.998	19.995	100.888	19.986	3.106	0.307
65.500	115.672	79.996	19.994	100.884	19.988	2.942	0.338
66.000	115.846	79.997	19.994	100.885	19.989	2.871	0.353
66.500	115.996	79.996	19.996	100.886	19.988	2.934	0.338
67.000	116.120	79.998	19.995	100.889	19.986	3.083	0.299
67.500	116.311	79.996	19.995	100.893	19.986	3.050	0.294
68.000	116.471	79.998	19.995	100.898	19.986	3.074	0.332
68.500	116.664	79.997	19.995	100.898	19.985	3.146	0.352
69.000	116.823	79.996	19.996	100.894	19.987	2.983	0.353
69.501	116.997	79.996	19.995	100.893	19.983	3.277	0.343
70.001	117.139	79.996	19.995	100.892	19.984	3.246	0.324
70.501	117.315	79.996	19.995	100.892	19.984	3.206	0.317
71.001	117.535	79.995	19.995	100.891	19.985	3.121	0.357
71.501	117.662	79.994	19.996	100.893	19.985	3.150	0.372
72.000	117.848	79.995	19.995	100.892	19.987	2.991	0.330
72.500	118.042	79.993	19.996	100.893	19.986	3.099	0.347
73.000	118.228	79.995	19.995	100.893	19.983	3.264	0.380
73.500	118.369	79.996	19.995	100.894	19.986	3.061	0.353
74.000	118.564	79.995	19.995	100.895	19.984	3.206	0.332
74.500	118.736	79.995	19.996	100.897	19.984	3.231	0.352
75.000	118.908	79.995	19.997	100.897	19.981	3.405	0.356
75.500	119.094	79.995	19.995	100.897	19.983	3.271	0.351
76.000	119.279	79.995	19.996	100.898	19.983	3.282	0.365
76.500	119.399	79.997	19.995	100.900	19.984	3.200	0.338
77.000	119.638	79.994	19.996	100.900	19.983	3.278	0.332
77.500	119.830	79.995	19.995	100.898	19.986	3.108	0.394
78.001	120.011	79.995	19.996	100.895	19.983	3.276	0.402
78.501	120.185	79.995	19.996	100.895	19.981	3.405	0.364
79.001	120.406	79.996	19.997	100.896	19.983	3.286	0.375
79.500	120.615	79.995	19.996	100.897	19.981	3.438	0.413
80.001	120.815	79.996	19.997	100.899	19.982	3.371	0.419
80.501	120.984	79.996	19.996	100.902	19.983	3.309	0.389
81.001	121.197	79.995	19.995	100.903	19.983	3.298	0.376
81.501	121.381	79.995	19.995	100.903	19.983	3.264	0.389
82.000	121.551	79.995	19.995	100.902	19.981	3.403	0.375
82.501	121.718	79.993	19.995	100.900	19.982	3.369	0.345
83.001	121.927	79.996	19.996	100.900	19.981	3.421	0.357
83.500	122.129	79.995	19.996	100.899	19.981	3.425	0.394
84.000	122.361	79.995	19.996	100.898	19.984	3.240	0.423
84.500	122.548	79.995	19.996	100.897	19.980	3.460	0.427
85.000	122.761	79.995	19.995	100.899	19.982	3.374	0.410
85.500	122.948	79.996	19.997	100.899	19.982	3.352	0.400
86.000	123.188	79.997	19.994	100.898	19.983	3.311	0.413
86.500	123.351	79.995	19.995	100.897	19.982	3.367	0.415
87.000	123.570	79.998	19.994	100.895	19.980	3.474	0.393
87.500	123.768	79.995	19.995	100.891	19.982	3.356	0.399
88.000	123.969	79.995	19.995	100.890	19.982	3.338	0.408
88.500	124.174	79.996	19.995	100.888	19.980	3.452	0.402
89.000	124.357	79.995	19.996	100.886	19.981	3.402	0.397
89.500	124.568	79.995	19.996	100.887	19.982	3.378	0.391
90.000	124.771	79.995	19.995	100.889	19.980	3.510	0.404
90.500	124.962	79.996	19.996	100.890	19.978	3.625	0.404
91.000	125.171	79.996	19.995	100.892	19.980	3.490	0.397
91.500	125.420	79.995	19.995	100.894	19.980	3.507	0.430
92.000	125.608	79.996	19.995	100.896	19.978	3.594	0.448
92.500	125.799	79.995	19.995	100.891	19.980	3.490	0.408
93.000	126.021	79.995	19.996	100.890	19.978	3.624	0.396
93.500	126.261	79.995	19.996	100.890	19.977	3.688	0.437
94.000	126.450	79.994	19.996	100.889	19.978	3.604	0.445
94.500	126.655	79.995	19.995	100.891	19.978	3.584	0.411
95.000	126.871	79.996	19.995	100.897	19.977	3.655	0.408
95.500	127.098	79.995	19.995	100.897	19.977	3.684	0.432
96.000	127.288	79.994	19.997	100.891	19.976	3.746	0.430
96.500	127.520	79.994	19.995	100.888	19.978	3.635	0.419
97.000	127.744	79.995	19.996	100.886	19.977	3.675	0.439
97.500	127.953	79.995	19.997	100.886	19.974	3.849	0.445
98.000	128.189	79.995	19.997	100.887	19.978	3.630	0.439
98.500	128.411	79.995	19.997	100.893	19.979	3.554	0.451
99.000	128.645	79.995	19.997	100.896	19.978	3.628	0.457
99.500	128.823	79.994	19.997	100.897	19.980	3.485	0.434
100.000	129.050	79.994	19.996	100.897	19.980	3.489	0.408
100.500	129.272	79.993	19.998	100.898	19.978	3.630	0.427
101.000	129.541	79.994	19.997	100.898	19.977	3.659	0.470
101.500	129.718	79.994	19.996	100.898	19.980	3.479	0.469
102.000	129.957	79.993	19.997	100.897	19.979	3.581	0.431
102.500	130.170	79.994	19.996	100.896	19.978	3.635	0.434
103.000	130.393	79.993	19.997	100.895	19.977	3.693	0.444
103.500	130.580	79.993	19.998	100.892	19.979	3.554	0.423
104.000	130.835	79.993	19.995	100.891	19.976	3.740	0.426
104.500	131.071	79.992	19.997	100.892	19.979	3.547	0.466
105.000	131.300	79.994	19.997	100.892	19.980	3.472	0.478
105.500	131.560	79.993	19.997	100.893	19.980	3.505	0.477
106.000	131.778	79.993	19.997	100.896	19.980	3.461	0.484
106.500	132.005	79.993	19.996	100.896	19.982	3.324	0.461
107.000	132.228	79.994	19.997	100.897	19.980	3.499	0.447
107.500	132.464	79.994	19.998	100.897	19.981	3.445	0.455
108.000	132.670	79.994	19.996	100.897	19.981	3.445	0.451
108.500	132.896	79.994	19.996	100.897	19.978	3.646	0.437
109.000	133.150	79.994	19.997	100.898	19.984	3.244	0.456
109.500	133.345	79.995	19.997	100.898	19.980	3.485	0.464
110.000	133.595	79.995	19.996	100.897	19.983	3.303	0.447
110.500	133.833	79.995	19.997	100.897	19.984	3.186	0.467
111.000	134.085	79.994	19.995	100.897	19.981	3.430	0.489
111.500	134.293	79.994	19.998	100.894	19.983	3.313	0.475
112.000	134.545	79.993	19.996	100.891	19.982	3.349	0.460
112.500	134.767	79.992	19.996	100.890	19.984	3.204	0.467
113.000	135.012	79.995	19.998	100.888	19.984	3.195	0.471
113.500	135.224	79.996	19.996	100.886	19.985	3.150	0.462
114.000	135.491	79.994	19.997	100.888	19.985	3.168	0.468
114.500	135.709	79.996	19.997	100.892	19.986	3.079	0.482
115.000	135.965	79.996	19.996	100.892	19.984	3.210	0.480
115.500	136.177	79.996	19.997	100.895	19.984	3.230	0.472
116.000	136.436	79.996	19.996	100.894	19.984	3.188	0.470
116.500	136.698	79.996	19.995	100.892	19.984	3.213	0.496
117.000	136.926	79.996	19.995	100.892	19.983	3.282	0.505
117.500	137.156	79.997	19.996	100.892	19.982	3.335	0.474
118.000	137.390	79.998	19.994	100.892	19.985	3.171	0.461
118.500	137.634	79.996	19.995	100.895	19.984	3.242	0.471
119.000	137.910	79.997	19.994	100.892	19.980	3.452	0.499
119.500	138.090	79.997	19.995	100.889	19.984	3.202	0.488
120.000	138.363	79.997	19.995	100.886	19.984	3.235	0.454
120.500	138.622	79.997	19.995	100.883	19.983	3.284	0.492
121.000	138.870	79.997	19.995	100.883	19.982	3.351	0.520
121.500	139.105	79.997	19.996	100.887	19.980	3.508	0.495
122.000	139.323	79.998	19.995	100.890	19.980	3.510	0.468
122.500	139.587	79.997	19.994	100.895	19.981	3.425	0.467
123.000	139.844	79.996	19.994	100.897	19.978	3.589	0.501
123.500	140.099	79.997	19.994	100.898	19.981	3.435	0.516
124.000	140.342	79.996	19.996	100.897	19.978	3.631	0.505
124.500	140.603	79.997	19.997	100.897	19.978	3.596	0.501
125.001	140.839	79.996	19.996	100.897	19.979	3.555	0.501
125.501	141.132	79.997	19.996	100.895	19.982	3.343	0.513
126.001	141.298	79.996	19.996	100.895	19.979	3.550	0.494
126.501	141.591	79.997	19.995	100.896	19.980	3.503	0.459
127.000	141.832	79.994	19.996	100.897	19.980	3.486	0.496
127.500	142.063	79.996	19.994	100.897	19.981	3.390	0.502
128.000	142.282	79.995	19.995	100.894	19.984	3.224	0.461
128.500	142.566	79.997	19.995	100.895	19.981	3.407	0.476
129.000	142.799	79.996	19.996	100.891	19.982	3.333	0.510
129.500	143.059	79.994	19.995	100.888	19.981	3.445	0.505
130.000	143.295	79.995	19.995	100.889	19.984	3.220	0.495
130.500	143.565	79.997	19.995	100.893	19.982	3.372	0.501
131.000	143.804	79.996	19.995	100.893	19.980	3.503	0.507
131.500	144.050	79.995	19.995	100.896	19.982	3.325	0.497
132.000	144.298	79.996	19.996	100.895	19.983	3.303	0.490
132.500	144.590	79.995	19.995	100.891	19.981	3.448	0.517
133.000	144.819	79.995	19.995	100.887	19.981	3.415	0.531
133.501	145.041	79.995	19.995	100.882	19.981	3.442	0.487
134.001	145.295	79.995	19.996	100.878	19.983	3.292	0.464
134.500	145.557	79.995	19.996	100.873	19.983	3.279	0.496
135.000	145.793	79.995	19.996	100.870	19.982	3.323	0.507
135.500	146.000	79.995	19.996	100.872	19.981	3.439	0.470
136.000	146.295	79.995	19.995	100.873	19.983	3.289	0.473
136.500	146.522	79.995	19.996	100.874	19.981	3.446	0.512
137.000	146.762	79.996	19.994	100.876	19.984	3.196	0.495
137.500	147.005	79.997	19.995	100.883	19.983	3.290	0.475
138.000	147.262	79.996	19.994	100.884	19.979	3.555	0.492
138.500	147.488	79.997	19.996	100.884	19.981	3.446	0.491
139.000	147.749	79.996	19.993	100.890	19.982	3.368	0.485
139.500	147.999	79.996	19.995	100.895	19.982	3.341	0.499
140.000	148.237	79.996	19.995	100.891	19.981	3.424	0.499
140.500	148.517	79.996	19.994	100.889	19.982	3.323	0.503
141.000	148.746	79.996	19.996	100.889	19.983	3.270	0.514
141.500	148.958	79.997	19.995	100.883	19.982	3.350	0.475
142.000	149.262	79.997	19.995	100.882	19.983	3.248	0.479
142.500	149.521	79.998	19.994	100.881	19.986	3.053	0.539
143.000	149.799	79.997	19.995	100.877	19.987	3.047	0.550
143.500	150.038	79.997	19.995	100.874	19.986	3.107	0.527
144.001	150.296	79.997	19.994	100.872	19.982	3.333	0.507
144.501	150.525	79.997	19.994	100.868	19.984	3.194	0.492
145.000	150.774	79.998	19.995	100.867	19.986	3.051	0.483
145.500	151.029	79.997	19.995	100.868	19.983	3.277	0.491
146.000	151.279	79.998	19.996	100.873	19.985	3.158	0.505
146.500	151.539	79.997	19.994	100.874	19.986	3.062	0.508
147.000	151.796	79.997	19.994	100.877	19.986	3.076	0.514
147.500	152.041	79.997	19.994	100.879	19.985	3.181	0.509
148.000	152.289	79.998	19.994	100.878	19.984	3.221	0.497
148.500	152.568	79.997	19.995	100.873	19.983	3.252	0.511
149.000	152.821	79.998	19.994	100.870	19.983	3.303	0.529
149.500	153.035	79.997	19.995	100.865	19.986	3.106	0.499
150.000	153.269	79.997	19.994	100.862	19.986	3.107	0.458
150.500	153.515	79.999	19.995	100.861	19.982	3.346	0.464
151.000	153.826	79.996	19.996	100.861	19.984	3.209	0.519
151.500	154.029	79.997	19.995	100.861	19.984	3.218	0.536
152.000	154.256	79.996	19.995	100.861	19.984	3.241	0.472
152.500	154.549	79.996	19.995	100.862	19.983	3.297	0.475
153.000	154.774	79.996	19.994	100.862	19.985	3.118	0.519
153.500	154.981	79.995	19.995	100.861	19.985	3.176	0.475
154.000	155.277	79.995	19.995	100.862	19.982	3.361	0.468
154.500	155.510	79.996	19.995	100.862	19.985	3.140	0.516
155.000	155.753	79.995	19.995	100.861	19.986	3.100	0.502
155.500	156.033	79.995	19.996	100.861	19.983	3.257	0.500
156.000	156.290	79.997	19.995	100.861	19.984	3.225	0.530
156.500	156.557	79.995	19.995	100.861	19.987	2.997	0.531
157.000	156.758	79.995	19.996	100.860	19.984	3.243	0.496
157.500	157.038	79.994	19.996	100.860	19.985	3.123	0.474
158.000	157.301	79.995	19.994	100.861	19.986	3.114	0.512
158.500	157.530	79.994	19.995	100.863	19.986	3.085	0.517
159.000	157.770	79.996	19.996	100.864	19.986	3.107	0.481
159.500	158.055	79.995	19.996	100.866	19.985	3.132	0.497
160.000	158.305	79.995	19.997	100.867	19.987	3.013	0.530
160.500	158.548	79.994	19.996	100.866	19.989	2.899	0.514
161.000	158.785	79.995	19.996	100.865	19.986	3.062	0.486
161.500	159.059	79.994	19.996	100.865	19.989	2.899	0.495
162.000	159.315	79.995	19.996	100.862	19.986	3.051	0.520
162.500	159.515	79.995	19.995	100.861	19.986	3.053	0.493
163.000	159.776	79.996	19.995	100.861	19.985	3.150	0.459
163.500	160.053	79.995	19.997	100.860	19.986	3.112	0.499
164.000	160.321	79.994	19.996	100.860	19.987	3.027	0.541
164.500	160.558	79.995	19.996	100.861	19.985	3.125	0.525
165.000	160.826	79.995	19.997	100.860	19.987	3.017	0.505
165.500	161.060	79.995	19.996	100.860	19.987	3.026	0.504
166.000	161.296	79.996	19.997	100.860	19.987	2.997	0.486
166.500	161.555	79.994	19.997	100.861	19.988	2.930	0.482
167.000	161.830	79.994	19.997	100.861	19.986	3.096	0.515
167.500	162.036	79.996	19.997	100.862	19.989	2.886	0.508
168.000	162.302	79.994	19.995	100.862	19.986	3.103	0.477
168.500	162.574	79.994	19.996	100.861	19.990	2.848	0.505
169.000	162.822	79.996	19.996	100.859	19.987	3.000	0.529
169.500	163.034	79.995	19.997	100.858	19.987	3.022	0.489
170.000	163.337	79.997	19.997	100.857	19.986	3.078	0.487
170.500	163.549	79.996	19.996	100.857	19.989	2.902	0.515
171.000	163.772	79.996	19.996	100.858	19.986	3.069	0.475
171.500	164.060	79.997	19.996	100.858	19.986	3.053	0.473
172.000	164.314	79.995	19.996	100.858	19.987	2.998	0.527
172.500	164.587	79.995	19.996	100.858	19.985	3.151	0.535
