Sample ID:	C:\MCC\MCC Cal\Test\New folder\Cotton_Raw_MCC_30K_min_210708_R1.txt
Sample Weight (mg):	4
Heating Rate (C/s):	0.5
Combustor Temp (C):	900
N2 Flow Rate (cc/min):	80
O2 Flow Rate (cc/min):	20
Calibration File:	C:\MCC\MCC Cal\Coeff1 JN10440_30_210304.txt.txt
T Correction Coefficients:	0	1.024463	0
Time Shift (s):	14
*
Time (s)	Temperature (C)	N2 flow rate (cc/min)	O2 flow rate (cc/min)	Flow Rate (cc/min)	Oxygen (%)	HRR (W/g)	Heating rate (C/s)
0.000	110.017	79.991	19.995	99.896	20.151	-0.094	-0.027
0.500	110.023	79.993	19.996	99.898	20.148	0.156	-0.003
0.999	109.983	79.992	19.996	99.897	20.151	-0.113	-0.011
1.498	109.989	79.994	19.997	99.898	20.146	0.267	-0.035
1.998	110.007	79.993	19.995	99.898	20.147	0.186	-0.005
2.498	110.014	79.991	19.995	99.898	20.143	0.510	0.025
2.998	109.992	79.994	19.996	99.899	20.148	0.100	0.005
3.498	109.977	79.993	19.996	99.898	20.157	-0.536	-0.026
3.999	109.989	79.994	19.997	99.899	20.153	-0.252	-0.020
4.499	109.990	79.993	19.995	99.898	20.151	-0.075	0.005
4.998	109.988	79.992	19.997	99.898	20.151	-0.096	0.006
5.499	109.975	79.994	19.997	99.896	20.149	0.073	-0.008
5.999	109.992	79.994	19.995	99.897	20.150	-0.053	-0.006
6.499	109.971	79.993	19.996	99.897	20.151	-0.070	0.000
6.999	109.988	79.994	19.997	99.897	20.150	-0.049	-0.004
7.498	109.975	79.992	19.996	99.898	20.149	0.064	0.000
7.998	109.935	79.992	19.997	99.899	20.148	0.169	-0.025
8.498	109.970	79.992	19.995	99.898	20.151	-0.124	-0.029
8.998	109.950	79.992	19.995	99.898	20.148	0.109	0.005
9.498	109.924	79.993	19.996	99.897	20.145	0.376	-0.015
9.998	109.971	79.991	19.996	99.896	20.144	0.423	-0.013
10.498	109.944	79.993	19.996	99.895	20.151	-0.077	0.021
10.999	109.929	79.994	19.997	99.892	20.148	0.156	-0.011
11.499	109.953	79.992	19.996	99.892	20.147	0.239	-0.016
11.998	109.905	79.994	19.997	99.892	20.147	0.244	-0.008
12.498	109.945	79.993	19.997	99.891	20.145	0.378	-0.016
12.998	109.929	79.992	19.997	99.891	20.148	0.150	0.008
13.498	109.915	79.993	19.996	99.893	20.148	0.122	-0.003
13.998	109.920	79.993	19.997	99.894	20.148	0.169	-0.020
14.498	109.915	79.994	19.996	99.895	20.146	0.282	-0.004
14.998	109.882	79.993	19.998	99.898	20.147	0.207	-0.019
15.498	109.895	79.993	19.997	99.906	20.149	0.049	-0.029
15.998	109.911	79.993	19.997	99.911	20.141	0.714	0.005
16.498	109.922	79.992	19.996	99.914	20.144	0.466	0.028
16.998	109.912	79.993	19.996	99.914	20.141	0.678	0.014
17.498	109.896	79.992	19.996	99.914	20.146	0.297	-0.013
17.998	109.897	79.994	19.997	99.913	20.148	0.124	-0.021
18.498	109.921	79.995	19.998	99.918	20.144	0.477	0.005
18.998	109.928	79.993	19.997	99.923	20.139	0.868	0.029
19.498	109.906	79.993	19.996	99.931	20.139	0.797	0.008
19.998	109.903	79.993	19.997	99.937	20.137	1.009	-0.020
20.498	109.890	79.993	19.995	99.944	20.142	0.603	-0.021
20.998	109.926	79.993	19.996	99.951	20.137	0.979	0.003
21.498	109.906	79.993	19.997	99.958	20.141	0.710	0.019
21.998	109.934	79.993	19.995	99.967	20.138	0.928	0.012
22.498	109.939	79.992	19.996	99.975	20.140	0.764	0.021
22.998	109.938	79.994	19.997	99.978	20.134	1.243	0.018
23.498	109.946	79.991	19.995	99.980	20.134	1.193	0.006
23.998	109.949	79.993	19.995	99.981	20.137	0.969	0.009
24.498	109.937	79.992	19.996	99.988	20.141	0.678	0.001
24.998	110.005	79.993	19.997	99.996	20.128	1.728	0.023
25.498	110.004	79.991	19.995	100.001	20.132	1.345	0.061
25.998	110.004	79.994	19.996	100.006	20.132	1.407	0.033
26.498	110.017	79.993	19.996	100.014	20.133	1.333	0.006
26.998	110.072	79.991	19.995	100.014	20.125	1.961	0.040
27.498	110.097	79.992	19.995	100.019	20.130	1.544	0.074
27.998	110.092	79.993	19.996	100.029	20.129	1.619	0.050
28.498	110.148	79.994	19.995	100.039	20.128	1.673	0.035
28.998	110.176	79.993	19.994	100.044	20.125	1.945	0.068
29.498	110.172	79.995	19.996	100.051	20.125	1.942	0.054
29.998	110.200	79.993	19.994	100.054	20.119	2.426	0.024
30.498	110.280	79.992	19.994	100.054	20.129	1.645	0.066
30.998	110.315	79.995	19.995	100.060	20.123	2.066	0.111
31.498	110.343	79.993	19.996	100.070	20.120	2.297	0.089
31.999	110.385	79.994	19.995	100.078	20.118	2.500	0.067
32.499	110.417	79.994	19.995	100.086	20.120	2.286	0.073
32.998	110.464	79.993	19.995	100.093	20.117	2.522	0.077
33.499	110.530	79.993	19.995	100.094	20.117	2.518	0.096
33.999	110.596	79.993	19.994	100.092	20.116	2.601	0.122
34.499	110.595	79.994	19.995	100.090	20.124	2.041	0.098
34.998	110.672	79.994	19.994	100.091	20.118	2.505	0.071
35.498	110.749	79.994	19.995	100.091	20.115	2.695	0.116
35.998	110.774	79.994	19.995	100.093	20.114	2.749	0.128
36.498	110.875	79.995	19.995	100.096	20.115	2.706	0.114
36.998	110.884	79.994	19.995	100.097	20.112	2.922	0.118
37.498	110.941	79.994	19.995	100.096	20.113	2.845	0.088
37.998	111.047	79.993	19.996	100.096	20.114	2.822	0.114
38.498	111.084	79.995	19.996	100.096	20.114	2.774	0.154
38.998	111.151	79.993	19.995	100.099	20.114	2.824	0.124
39.499	111.221	79.996	19.998	100.105	20.111	3.029	0.120
39.999	111.312	79.994	19.997	100.111	20.110	3.067	0.149
40.499	111.389	79.994	19.996	100.112	20.110	3.061	0.165
40.999	111.490	79.992	19.994	100.113	20.107	3.337	0.173
41.498	111.518	79.995	19.995	100.110	20.112	2.952	0.153
41.998	111.594	79.994	19.996	100.104	20.109	3.204	0.117
42.498	111.676	79.992	19.996	100.099	20.104	3.542	0.131
42.998	111.765	79.992	19.995	100.097	20.113	2.827	0.165
43.498	111.845	79.994	19.997	100.097	20.107	3.353	0.170
43.998	111.979	79.994	19.994	100.098	20.111	3.054	0.191
44.499	112.065	79.993	19.995	100.100	20.108	3.238	0.217
44.999	112.134	79.994	19.995	100.102	20.104	3.584	0.188
45.498	112.203	79.993	19.995	100.105	20.109	3.156	0.147
45.998	112.319	79.992	19.995	100.108	20.110	3.083	0.161
46.498	112.393	79.992	19.995	100.111	20.108	3.250	0.187
46.998	112.539	79.994	19.996	100.112	20.104	3.552	0.205
47.498	112.654	79.992	19.994	100.113	20.106	3.436	0.241
47.998	112.704	79.994	19.996	100.115	20.107	3.310	0.213
48.498	112.808	79.993	19.994	100.114	20.104	3.530	0.160
48.998	112.952	79.993	19.994	100.109	20.107	3.361	0.201
49.498	113.019	79.993	19.994	100.107	20.109	3.205	0.229
49.998	113.114	79.993	19.995	100.105	20.108	3.263	0.186
50.498	113.224	79.992	19.994	100.101	20.103	3.616	0.184
50.998	113.340	79.993	19.995	100.099	20.108	3.225	0.216
51.498	113.460	79.994	19.995	100.099	20.110	3.096	0.231
51.998	113.574	79.994	19.993	100.098	20.109	3.156	0.235
52.499	113.661	79.994	19.995	100.095	20.112	2.934	0.218
52.999	113.792	79.995	19.994	100.094	20.110	3.084	0.209
53.498	113.920	79.994	19.995	100.091	20.114	2.823	0.238
53.998	114.039	79.993	19.993	100.086	20.113	2.885	0.253
54.498	114.144	79.995	19.995	100.081	20.111	3.041	0.235
54.998	114.237	79.996	19.995	100.080	20.112	2.979	0.211
55.498	114.365	79.996	19.995	100.074	20.116	2.663	0.210
55.998	114.461	79.997	19.995	100.068	20.113	2.890	0.222
56.498	114.595	79.996	19.994	100.067	20.111	3.035	0.227
56.998	114.702	79.997	19.995	100.068	20.111	3.035	0.236
57.498	114.838	79.995	19.994	100.067	20.113	2.851	0.242
57.998	114.946	79.997	19.995	100.066	20.111	3.041	0.243
58.498	115.104	79.994	19.996	100.068	20.112	2.930	0.255
58.999	115.206	79.994	19.994	100.066	20.112	2.930	0.263
59.499	115.283	79.996	19.994	100.065	20.117	2.569	0.220
59.998	115.425	79.995	19.994	100.066	20.118	2.460	0.199
60.498	115.535	79.997	19.995	100.067	20.117	2.534	0.235
60.998	115.687	79.996	19.994	100.067	20.112	2.975	0.257
61.498	115.777	79.995	19.993	100.068	20.115	2.712	0.252
61.998	115.890	79.996	19.994	100.068	20.114	2.748	0.223
62.498	115.986	79.996	19.995	100.066	20.115	2.680	0.206
62.998	116.101	79.994	19.994	100.068	20.109	3.172	0.210
63.498	116.271	79.997	19.994	100.074	20.112	2.905	0.248
63.998	116.371	79.996	19.995	100.080	20.110	3.061	0.278
64.499	116.505	79.997	19.995	100.085	20.111	2.984	0.252
64.999	116.646	79.997	19.995	100.087	20.114	2.755	0.254
65.499	116.727	79.996	19.994	100.090	20.111	2.984	0.248
65.999	116.853	79.994	19.995	100.090	20.110	3.134	0.215
66.499	117.005	79.996	19.995	100.091	20.115	2.717	0.243
66.999	117.150	79.995	19.994	100.092	20.109	3.142	0.287
67.499	117.269	79.995	19.995	100.091	20.108	3.262	0.281
67.999	117.390	79.995	19.996	100.091	20.104	3.547	0.252
68.499	117.535	79.994	19.995	100.092	20.108	3.243	0.253
68.999	117.669	79.993	19.996	100.092	20.107	3.303	0.273
69.499	117.786	79.993	19.995	100.092	20.108	3.233	0.266
69.999	117.930	79.991	19.994	100.093	20.114	2.779	0.256
70.499	118.063	79.993	19.995	100.094	20.106	3.421	0.269
71.000	118.213	79.991	19.995	100.093	20.111	3.010	0.280
71.500	118.329	79.993	19.997	100.092	20.109	3.205	0.274
71.999	118.444	79.993	19.996	100.092	20.110	3.092	0.248
72.499	118.601	79.991	19.996	100.092	20.110	3.083	0.251
73.000	118.753	79.993	19.996	100.094	20.104	3.545	0.291
73.500	118.877	79.992	19.996	100.099	20.110	3.096	0.293
74.000	119.002	79.994	19.996	100.104	20.111	3.025	0.262
74.500	119.119	79.992	19.996	100.108	20.104	3.534	0.245
74.999	119.328	79.993	19.997	100.108	20.108	3.231	0.284
75.499	119.449	79.992	19.997	100.109	20.106	3.393	0.328
75.999	119.587	79.993	19.997	100.104	20.116	2.597	0.295
76.499	119.769	79.992	19.996	100.103	20.110	3.081	0.290
76.999	119.892	79.993	19.996	100.104	20.104	3.564	0.312
77.499	120.003	79.993	19.996	100.107	20.111	2.997	0.269
77.999	120.160	79.992	19.995	100.105	20.111	2.995	0.251
78.499	120.301	79.992	19.997	100.108	20.113	2.848	0.283
78.999	120.477	79.993	19.994	100.112	20.110	3.119	0.307
79.499	120.631	79.992	19.996	100.111	20.108	3.231	0.324
79.999	120.743	79.993	19.996	100.111	20.106	3.438	0.298
80.499	120.898	79.995	19.996	100.118	20.107	3.359	0.267
80.999	121.045	79.993	19.997	100.120	20.109	3.197	0.285
81.499	121.181	79.993	19.997	100.121	20.107	3.308	0.292
81.999	121.317	79.994	19.996	100.125	20.110	3.070	0.277
82.499	121.525	79.993	19.997	100.128	20.111	2.993	0.308
82.999	121.696	79.990	19.996	100.129	20.106	3.436	0.362
83.499	121.838	79.992	19.994	100.130	20.108	3.231	0.346
83.999	122.018	79.993	19.996	100.130	20.109	3.156	0.317
84.499	122.173	79.992	19.994	100.130	20.108	3.248	0.328
84.999	122.318	79.992	19.997	100.126	20.103	3.610	0.318
85.499	122.499	79.993	19.995	100.122	20.108	3.269	0.314
85.999	122.608	79.991	19.995	100.122	20.104	3.597	0.308
86.500	122.795	79.994	19.997	100.118	20.110	3.124	0.292
87.000	122.983	79.994	19.994	100.117	20.107	3.368	0.335
87.499	123.140	79.994	19.995	100.121	20.104	3.584	0.360
87.999	123.305	79.993	19.995	100.123	20.107	3.351	0.334
88.499	123.491	79.995	19.995	100.120	20.101	3.800	0.337
88.999	123.627	79.992	19.995	100.125	20.103	3.663	0.336
89.499	123.771	79.993	19.995	100.127	20.103	3.644	0.301
89.999	123.982	79.995	19.996	100.128	20.105	3.484	0.317
90.499	124.135	79.992	19.996	100.130	20.108	3.280	0.360
90.999	124.332	79.993	19.996	100.132	20.104	3.580	0.357
91.499	124.509	79.992	19.996	100.131	20.103	3.644	0.362
91.999	124.662	79.992	19.995	100.129	20.104	3.569	0.352
92.499	124.829	79.994	19.997	100.128	20.105	3.501	0.325
92.999	125.026	79.992	19.995	100.130	20.100	3.879	0.341
93.499	125.176	79.990	19.995	100.131	20.102	3.706	0.356
93.999	125.312	79.992	19.996	100.132	20.104	3.584	0.317
94.499	125.526	79.993	19.995	100.135	20.107	3.360	0.318
94.999	125.716	79.991	19.995	100.135	20.103	3.653	0.377
95.499	125.879	79.994	19.996	100.135	20.104	3.539	0.378
95.999	126.081	79.992	19.995	100.134	20.098	4.008	0.359
96.499	126.222	79.991	19.996	100.134	20.098	4.036	0.354
96.999	126.412	79.993	19.995	100.135	20.101	3.775	0.337
97.499	126.582	79.993	19.997	100.134	20.102	3.719	0.345
97.999	126.768	79.992	19.997	100.135	20.104	3.576	0.358
98.499	126.922	79.991	19.996	100.138	20.104	3.557	0.348
98.999	127.137	79.992	19.996	100.139	20.102	3.722	0.354
99.499	127.283	79.992	19.997	100.139	20.102	3.735	0.365
99.999	127.448	79.990	19.996	100.141	20.101	3.839	0.336
100.499	127.623	79.992	19.997	100.141	20.101	3.837	0.326
100.999	127.816	79.991	19.997	100.139	20.102	3.745	0.354
101.499	127.986	79.991	19.996	100.140	20.102	3.709	0.365
101.999	128.216	79.992	19.995	100.141	20.107	3.360	0.381
102.499	128.399	79.992	19.997	100.139	20.106	3.450	0.406
102.999	128.565	79.992	19.996	100.138	20.101	3.839	0.381
103.499	128.767	79.992	19.997	100.137	20.102	3.734	0.359
104.000	128.981	79.992	19.997	100.138	20.107	3.315	0.392
104.500	129.166	79.991	19.997	100.142	20.102	3.740	0.407
104.999	129.327	79.993	19.996	100.145	20.102	3.689	0.373
105.499	129.551	79.993	19.997	100.146	20.105	3.471	0.366
105.999	129.735	79.992	19.996	100.147	20.102	3.713	0.396
106.499	129.922	79.992	19.995	100.146	20.101	3.809	0.389
106.999	130.115	79.991	19.996	100.144	20.102	3.704	0.376
107.499	130.342	79.990	19.996	100.145	20.102	3.695	0.400
107.999	130.473	79.992	19.995	100.145	20.107	3.338	0.389
108.499	130.683	79.994	19.996	100.152	20.107	3.306	0.349
108.999	130.857	79.993	19.996	100.152	20.108	3.278	0.363
109.499	131.079	79.992	19.995	100.152	20.105	3.454	0.390
109.999	131.295	79.994	19.994	100.153	20.103	3.678	0.417
110.499	131.475	79.991	19.996	100.155	20.103	3.608	0.417
110.999	131.681	79.993	19.995	100.151	20.105	3.482	0.391
111.499	131.885	79.993	19.995	100.151	20.101	3.786	0.398
111.999	132.076	79.993	19.996	100.157	20.099	3.989	0.402
112.499	132.290	79.993	19.994	100.155	20.105	3.520	0.400
112.999	132.478	79.993	19.994	100.153	20.108	3.255	0.404
113.499	132.710	79.994	19.995	100.154	20.106	3.422	0.411
114.000	132.887	79.995	19.995	100.154	20.098	4.002	0.415
114.499	133.107	79.995	19.996	100.146	20.104	3.589	0.403
114.999	133.292	79.995	19.994	100.144	20.105	3.527	0.400
115.499	133.539	79.995	19.994	100.141	20.098	4.068	0.418
115.999	133.724	79.994	19.995	100.138	20.098	4.062	0.432
116.499	133.953	79.994	19.995	100.138	20.104	3.540	0.423
116.999	134.106	79.992	19.994	100.138	20.104	3.584	0.398
117.499	134.342	79.996	19.996	100.137	20.103	3.646	0.386
117.999	134.528	79.997	19.995	100.137	20.100	3.910	0.405
118.499	134.741	79.995	19.995	100.137	20.103	3.657	0.411
118.999	134.943	79.996	19.996	100.135	20.099	3.963	0.407
119.499	135.180	79.995	19.995	100.133	20.099	3.929	0.427
119.999	135.378	79.996	19.995	100.137	20.098	4.010	0.437
120.499	135.580	79.995	19.995	100.137	20.105	3.496	0.417
120.999	135.814	79.995	19.995	100.142	20.104	3.533	0.418
121.499	136.000	79.997	19.994	100.144	20.104	3.586	0.428
121.999	136.220	79.994	19.996	100.146	20.099	3.935	0.413
122.499	136.475	79.995	19.995	100.147	20.101	3.771	0.441
122.999	136.662	79.992	19.995	100.147	20.102	3.721	0.459
123.499	136.894	79.994	19.995	100.147	20.098	4.019	0.431
123.999	137.093	79.994	19.995	100.147	20.102	3.722	0.425
124.499	137.309	79.994	19.995	100.150	20.102	3.758	0.423
124.999	137.502	79.994	19.996	100.149	20.104	3.533	0.412
125.499	137.737	79.992	19.997	100.153	20.100	3.858	0.418
125.999	137.914	79.993	19.995	100.154	20.103	3.647	0.420
126.499	138.123	79.995	19.996	100.155	20.105	3.503	0.399
126.999	138.374	79.995	19.996	100.152	20.102	3.717	0.423
127.499	138.582	79.994	19.996	100.150	20.105	3.508	0.459
127.999	138.801	79.994	19.994	100.147	20.104	3.533	0.443
128.499	139.040	79.994	19.997	100.142	20.104	3.529	0.442
128.999	139.265	79.994	19.996	100.141	20.106	3.390	0.461
129.499	139.400	79.995	19.996	100.142	20.102	3.704	0.412
129.999	139.653	79.995	19.996	100.142	20.102	3.754	0.374
130.499	139.864	79.994	19.995	100.140	20.099	3.927	0.426
130.999	140.068	79.994	19.995	100.140	20.101	3.818	0.440
131.499	140.292	79.996	19.996	100.136	20.101	3.828	0.422
131.999	140.557	79.995	19.995	100.137	20.099	3.946	0.458
132.499	140.726	79.993	19.995	100.140	20.103	3.646	0.461
132.999	140.988	79.994	19.994	100.144	20.101	3.802	0.433
133.499	141.221	79.996	19.995	100.148	20.105	3.465	0.463
133.999	141.410	79.995	19.995	100.149	20.102	3.698	0.458
134.499	141.654	79.995	19.996	100.151	20.100	3.854	0.427
134.999	141.903	79.994	19.996	100.151	20.104	3.557	0.463
135.499	142.112	79.996	19.995	100.150	20.101	3.771	0.476
135.999	142.337	79.995	19.996	100.146	20.103	3.629	0.446
136.499	142.531	79.994	19.994	100.148	20.103	3.646	0.426
136.999	142.773	79.996	19.994	100.150	20.100	3.911	0.427
137.499	142.986	79.996	19.996	100.152	20.106	3.379	0.446
137.999	143.220	79.997	19.996	100.151	20.101	3.802	0.451
138.499	143.445	79.996	19.996	100.152	20.103	3.614	0.453
138.999	143.661	79.996	19.995	100.149	20.106	3.415	0.450
139.499	143.904	79.995	19.996	100.146	20.105	3.475	0.450
139.999	144.137	79.997	19.995	100.147	20.105	3.497	0.468
140.499	144.306	79.998	19.997	100.149	20.100	3.872	0.439
140.999	144.583	79.996	19.996	100.152	20.101	3.773	0.424
141.499	144.828	79.996	19.995	100.156	20.103	3.615	0.484
141.999	145.038	79.997	19.994	100.154	20.106	3.439	0.488
142.499	145.288	79.998	19.995	100.147	20.105	3.501	0.457
142.999	145.490	79.997	19.994	100.143	20.107	3.330	0.457
143.499	145.764	79.996	19.994	100.141	20.103	3.649	0.464
143.999	145.966	79.996	19.995	100.140	20.102	3.760	0.476
144.499	146.220	79.996	19.995	100.145	20.105	3.514	0.466
144.999	146.422	79.997	19.996	100.151	20.101	3.784	0.456
145.499	146.656	79.998	19.995	100.151	20.102	3.686	0.446
145.999	146.875	79.995	19.995	100.150	20.099	3.947	0.444
146.499	147.119	79.996	19.995	100.146	20.104	3.570	0.458
146.999	147.359	79.997	19.994	100.141	20.101	3.773	0.473
147.499	147.546	79.995	19.995	100.135	20.100	3.919	0.455
148.000	147.791	79.996	19.996	100.134	20.103	3.643	0.429
148.500	148.019	79.993	19.996	100.135	20.101	3.771	0.452
148.999	148.260	79.994	19.995	100.136	20.103	3.662	0.471
149.499	148.514	79.992	19.996	100.138	20.100	3.876	0.483
149.999	148.763	79.992	19.994	100.141	20.106	3.443	0.499
150.499	148.953	79.993	19.995	100.146	20.102	3.694	0.471
150.999	149.216	79.993	19.996	100.153	20.103	3.666	0.446
151.499	149.436	79.992	19.997	100.158	20.103	3.655	0.468
151.999	149.722	79.992	19.994	100.160	20.103	3.634	0.494
152.499	149.923	79.993	19.996	100.164	20.101	3.824	0.496
152.999	150.189	79.993	19.996	100.162	20.099	3.946	0.477
153.499	150.388	79.993	19.994	100.158	20.097	4.085	0.466
153.999	150.602	79.993	19.996	100.156	20.104	3.541	0.439
154.499	150.827	79.992	19.996	100.155	20.103	3.633	0.426
154.999	151.081	79.992	19.995	100.155	20.102	3.745	0.459
155.499	151.334	79.993	19.996	100.158	20.101	3.811	0.493
155.999	151.567	79.992	19.996	100.156	20.103	3.614	0.496
156.500	151.804	79.993	19.997	100.160	20.097	4.149	0.478
157.000	152.064	79.992	19.997	100.164	20.099	3.931	0.484
157.499	152.300	79.993	19.996	100.164	20.098	4.001	0.496
157.999	152.524	79.992	19.996	100.160	20.103	3.657	0.477
158.499	152.814	79.992	19.996	100.164	20.103	3.629	0.487
158.999	153.012	79.993	19.997	100.157	20.105	3.494	0.501
159.499	153.246	79.993	19.997	100.152	20.110	3.107	0.460
159.999	153.479	79.994	19.997	100.149	20.102	3.691	0.450
160.499	153.729	79.992	19.997	100.151	20.102	3.756	0.475
160.999	153.924	79.992	19.996	100.147	20.103	3.619	0.464
161.499	154.124	79.991	19.996	100.153	20.102	3.734	0.420
161.999	154.407	79.992	19.996	100.156	20.101	3.837	0.439
162.499	154.639	79.994	19.997	100.155	20.099	3.920	0.499
162.999	154.886	79.994	19.996	100.153	20.101	3.766	0.497
163.499	155.106	79.993	19.996	100.151	20.101	3.766	0.473
163.999	155.362	79.994	19.997	100.145	20.101	3.773	0.471
164.499	155.559	79.992	19.997	100.139	20.100	3.859	0.465
164.999	155.824	79.993	19.996	100.139	20.101	3.820	0.458
165.499	156.060	79.992	19.997	100.140	20.099	3.980	0.481
165.999	156.328	79.993	19.996	100.140	20.103	3.657	0.502
166.499	156.549	79.991	19.996	100.141	20.103	3.623	0.497
166.999	156.780	79.993	19.997	100.141	20.102	3.685	0.471
167.499	157.027	79.994	19.995	100.140	20.105	3.494	0.465
167.999	157.264	79.991	19.995	100.139	20.100	3.865	0.481
168.499	157.520	79.993	19.997	100.139	20.101	3.792	0.488
168.999	157.770	79.993	19.997	100.139	20.106	3.398	0.499
169.499	157.965	79.993	19.996	100.140	20.105	3.456	0.475
169.999	158.263	79.993	19.998	100.143	20.100	3.860	0.469
170.499	158.494	79.990	19.995	100.143	20.105	3.526	0.511
170.999	158.735	79.992	19.996	100.144	20.101	3.830	0.500
171.499	158.964	79.995	19.996	100.145	20.099	3.941	0.471
171.999	159.219	79.991	19.996	100.145	20.100	3.883	0.477
172.499	159.480	79.992	19.995	100.142	20.106	3.404	0.500
172.999	159.732	79.992	19.995	100.144	20.101	3.777	0.514
