Sample ID:	C:\MCC\MCC Cal\Test\LW_GypBoard_Painted_Paper_MCC_30K_min_211202_R3.txt
Sample Weight (mg):	4.37
Heating Rate (C/s):	0.5
Combustor Temp (C):	900
N2 Flow Rate (cc/min):	80
O2 Flow Rate (cc/min):	20
Calibration File:	C:\MCC\MCC Cal\Coeff1 JN10440_30_210304.txt.txt
T Correction Coefficients:	0	1.024463	0
Time Shift (s):	14
*
Time (s)	Temperature (C)	N2 flow rate (cc/min)	O2 flow rate (cc/min)	Flow Rate (cc/min)	Oxygen (%)	HRR (W/g)	Heating rate (C/s)
0.000	108.339	80.001	19.995	103.012	20.102	0.195	-0.037
0.500	108.379	80.000	19.993	103.011	20.103	0.099	0.010
1.001	108.390	80.002	19.999	103.014	20.106	-0.095	0.049
1.501	108.405	80.001	19.998	103.018	20.102	0.199	0.039
2.000	108.383	80.000	19.997	103.020	20.105	0.006	0.009
2.500	108.381	80.001	19.997	103.020	20.103	0.116	-0.016
3.000	108.346	80.001	19.996	103.018	20.104	0.047	-0.031
3.500	108.389	80.000	19.997	103.020	20.104	0.024	-0.015
4.000	108.392	80.000	19.996	103.020	20.103	0.120	0.027
4.500	108.358	80.001	19.996	103.020	20.100	0.321	0.007
5.000	108.369	80.001	19.995	103.021	20.106	-0.073	-0.027
5.500	108.337	80.000	19.996	103.023	20.101	0.290	-0.022
6.000	108.364	80.000	19.995	103.017	20.099	0.410	-0.013
6.500	108.346	80.000	19.996	103.011	20.099	0.422	0.002
7.000	108.339	80.001	19.994	103.009	20.101	0.313	-0.008
7.500	108.303	80.000	19.996	103.003	20.101	0.278	-0.034
8.000	108.318	80.002	19.995	103.001	20.098	0.483	-0.032
8.500	108.328	80.000	19.996	103.007	20.102	0.225	0.002
9.001	108.310	80.002	19.996	103.012	20.101	0.266	0.008
9.501	108.346	80.000	19.994	103.010	20.100	0.364	0.005
10.000	108.324	80.001	19.995	103.013	20.102	0.238	0.016
10.500	108.328	80.002	19.995	103.017	20.101	0.286	-0.002
11.000	108.361	80.000	19.995	103.018	20.101	0.311	0.009
11.500	108.325	80.002	19.996	103.018	20.101	0.313	0.017
12.000	108.379	80.001	19.994	103.024	20.100	0.378	0.008
12.500	108.348	80.002	19.995	103.028	20.097	0.541	0.021
13.000	108.318	80.003	19.995	103.028	20.100	0.339	-0.019
13.500	108.312	80.001	19.996	103.025	20.100	0.358	-0.049
14.000	108.340	80.000	19.996	103.025	20.101	0.299	-0.007
14.500	108.371	80.002	19.995	103.025	20.100	0.327	0.041
15.000	108.370	80.002	19.994	103.025	20.100	0.358	0.044
15.500	108.381	80.002	19.996	103.025	20.103	0.138	0.019
16.000	108.361	80.002	19.995	103.028	20.100	0.354	0.000
16.500	108.371	80.001	19.995	103.031	20.102	0.195	-0.009
17.000	108.352	80.003	19.995	103.036	20.100	0.382	-0.009
17.500	108.379	80.002	19.994	103.044	20.098	0.498	-0.001
18.000	108.369	80.002	19.996	103.049	20.097	0.547	0.013
18.500	108.373	80.002	19.995	103.055	20.097	0.585	0.006
19.000	108.424	80.003	19.995	103.059	20.094	0.766	0.025
19.500	108.393	80.001	19.994	103.060	20.094	0.795	0.038
20.000	108.401	80.004	19.996	103.062	20.098	0.502	-0.001
20.500	108.394	80.001	19.996	103.072	20.095	0.722	-0.011
21.000	108.425	80.003	19.996	103.081	20.094	0.825	0.012
21.500	108.448	80.001	19.994	103.090	20.094	0.825	0.038
22.000	108.445	80.003	19.995	103.099	20.090	1.081	0.037
22.500	108.464	80.003	19.995	103.105	20.095	0.734	0.018
23.000	108.497	80.004	19.994	103.105	20.093	0.884	0.034
23.500	108.496	80.003	19.994	103.105	20.092	0.969	0.042
24.000	108.515	80.003	19.995	103.105	20.091	1.038	0.025
24.500	108.552	80.004	19.995	103.103	20.089	1.130	0.037
25.000	108.540	80.003	19.994	103.103	20.090	1.071	0.040
25.500	108.567	80.004	19.995	103.103	20.084	1.545	0.020
26.000	108.601	80.004	19.995	103.103	20.085	1.419	0.038
26.500	108.611	80.002	19.995	103.106	20.088	1.266	0.052
27.000	108.613	80.004	19.996	103.106	20.085	1.474	0.028
27.500	108.651	80.003	19.994	103.109	20.085	1.421	0.026
28.000	108.679	80.002	19.996	103.115	20.086	1.394	0.053
28.500	108.725	80.004	19.995	103.121	20.088	1.218	0.070
29.000	108.753	80.004	19.994	103.126	20.088	1.263	0.074
29.500	108.809	80.003	19.994	103.132	20.085	1.470	0.079
30.000	108.870	80.003	19.995	103.131	20.085	1.456	0.101
30.500	108.869	80.004	19.994	103.133	20.085	1.438	0.088
31.000	108.919	80.003	19.995	103.134	20.085	1.440	0.055
31.500	108.954	80.004	19.993	103.133	20.086	1.395	0.067
32.000	108.995	80.003	19.996	103.134	20.083	1.578	0.080
32.500	109.029	80.002	19.996	103.136	20.086	1.352	0.076
33.000	109.114	80.002	19.995	103.130	20.083	1.617	0.097
33.501	109.114	80.000	19.995	103.123	20.082	1.692	0.102
34.001	109.137	80.002	19.994	103.116	20.082	1.692	0.054
34.501	109.192	80.002	19.994	103.115	20.085	1.438	0.051
35.001	109.268	80.002	19.994	103.111	20.084	1.533	0.105
35.500	109.243	80.002	19.995	103.116	20.082	1.657	0.091
36.000	109.349	80.003	19.994	103.120	20.086	1.366	0.066
36.500	109.364	80.004	19.996	103.124	20.083	1.578	0.101
37.000	109.419	80.004	19.995	103.122	20.082	1.682	0.096
37.500	109.450	80.004	19.995	103.126	20.082	1.703	0.078
38.000	109.500	80.002	19.995	103.128	20.081	1.777	0.083
38.500	109.521	80.003	19.996	103.131	20.079	1.911	0.076
39.000	109.619	80.001	19.996	103.136	20.082	1.683	0.095
39.500	109.653	80.002	19.996	103.146	20.084	1.541	0.126
40.000	109.710	80.002	19.995	103.155	20.081	1.764	0.112
40.500	109.779	80.003	19.993	103.163	20.079	1.931	0.109
41.000	109.811	80.002	19.995	103.171	20.076	2.092	0.113
41.500	109.870	80.004	19.995	103.179	20.077	2.033	0.096
42.000	109.945	80.004	19.995	103.181	20.077	2.037	0.112
42.500	110.006	80.003	19.995	103.184	20.075	2.159	0.135
43.000	110.093	80.004	19.995	103.185	20.073	2.346	0.142
43.500	110.140	80.003	19.994	103.186	20.070	2.536	0.141
44.000	110.221	80.003	19.995	103.189	20.071	2.462	0.131
44.500	110.261	80.003	19.995	103.195	20.070	2.587	0.124
45.000	110.347	80.004	19.995	103.193	20.071	2.477	0.123
45.500	110.419	80.004	19.994	103.177	20.073	2.326	0.143
46.000	110.505	80.004	19.995	103.166	20.071	2.468	0.158
46.500	110.572	80.004	19.995	103.162	20.071	2.466	0.155
47.000	110.658	80.003	19.995	103.162	20.071	2.490	0.153
47.501	110.707	80.005	19.994	103.173	20.069	2.633	0.144
48.001	110.792	80.004	19.995	103.207	20.067	2.802	0.135
48.500	110.874	80.007	19.994	103.258	20.065	2.904	0.150
49.000	110.961	80.005	19.993	103.273	20.068	2.678	0.168
49.500	111.026	80.005	19.994	103.277	20.068	2.694	0.161
50.000	111.160	80.005	19.994	103.274	20.067	2.767	0.175
50.500	111.201	80.003	19.995	103.265	20.065	2.957	0.186
51.000	111.261	80.006	19.994	103.235	20.067	2.786	0.138
51.500	111.380	80.005	19.994	103.234	20.065	2.911	0.140
52.000	111.512	80.004	19.993	103.240	20.067	2.764	0.215
52.501	111.585	80.004	19.995	103.246	20.065	2.951	0.228
53.001	111.677	80.005	19.994	103.251	20.066	2.890	0.186
53.501	111.809	80.005	19.994	103.255	20.064	3.005	0.195
54.000	111.869	80.004	19.995	103.254	20.063	3.060	0.208
54.500	112.016	80.004	19.994	103.253	20.062	3.121	0.199
55.000	112.097	80.002	19.995	103.255	20.063	3.110	0.217
55.501	112.206	80.003	19.996	103.252	20.063	3.060	0.209
56.001	112.333	80.004	19.995	103.248	20.063	3.056	0.213
56.500	112.434	80.003	19.995	103.244	20.059	3.355	0.233
57.000	112.556	80.003	19.995	103.239	20.061	3.221	0.226
57.500	112.675	80.001	19.996	103.234	20.062	3.154	0.232
58.000	112.751	80.002	19.996	103.233	20.063	3.049	0.217
58.500	112.899	80.001	19.995	103.236	20.062	3.146	0.209
59.000	113.041	80.002	19.996	103.242	20.061	3.248	0.257
59.500	113.149	80.002	19.995	103.241	20.061	3.232	0.270
60.001	113.248	80.001	19.994	103.240	20.061	3.216	0.229
60.501	113.384	80.002	19.995	103.242	20.059	3.352	0.221
61.000	113.498	80.000	19.996	103.241	20.062	3.163	0.243
61.500	113.647	80.002	19.996	103.244	20.062	3.126	0.257
62.000	113.761	80.000	19.995	103.261	20.063	3.053	0.263
62.500	113.904	80.002	19.994	103.280	20.061	3.191	0.260
63.000	114.033	80.000	19.996	103.282	20.061	3.252	0.265
63.500	114.171	80.001	19.994	103.276	20.059	3.378	0.269
64.000	114.277	80.001	19.996	103.267	20.058	3.450	0.255
64.500	114.431	80.002	19.995	103.243	20.059	3.399	0.252
65.001	114.550	80.000	19.997	103.218	20.059	3.405	0.267
65.501	114.697	80.001	19.996	103.213	20.061	3.220	0.270
66.000	114.832	80.001	19.994	103.216	20.059	3.354	0.274
66.500	114.974	80.000	19.996	103.223	20.058	3.444	0.280
67.000	115.125	80.000	19.995	103.232	20.058	3.458	0.285
67.500	115.244	80.002	19.995	103.245	20.062	3.153	0.282
68.000	115.426	80.002	19.995	103.252	20.059	3.348	0.285
68.501	115.507	80.002	19.996	103.257	20.060	3.275	0.282
69.001	115.689	79.999	19.996	103.259	20.059	3.356	0.263
69.500	115.816	80.002	19.996	103.258	20.062	3.183	0.287
70.000	115.973	80.001	19.996	103.258	20.060	3.281	0.296
70.500	116.114	80.001	19.996	103.258	20.056	3.574	0.291
71.000	116.246	80.001	19.995	103.259	20.058	3.466	0.285
71.501	116.425	80.003	19.994	103.258	20.056	3.586	0.292
72.001	116.564	80.002	19.995	103.262	20.056	3.582	0.315
72.500	116.715	80.002	19.996	103.262	20.055	3.668	0.304
73.001	116.879	80.002	19.995	103.262	20.058	3.425	0.302
73.501	117.035	80.003	19.995	103.262	20.057	3.507	0.317
74.001	117.214	80.001	19.997	103.262	20.057	3.527	0.327
74.501	117.400	80.002	19.996	103.263	20.059	3.388	0.350
75.000	117.518	80.004	19.996	103.264	20.056	3.631	0.334
75.500	117.694	80.002	19.994	103.264	20.054	3.737	0.299
76.000	117.876	80.001	19.995	103.265	20.058	3.443	0.326
76.500	118.013	80.003	19.995	103.265	20.056	3.598	0.338
77.000	118.170	80.002	19.995	103.265	20.055	3.641	0.306
77.500	118.330	80.002	19.995	103.264	20.057	3.552	0.305
78.000	118.530	80.002	19.995	103.263	20.057	3.523	0.339
78.501	118.631	80.003	19.995	103.262	20.054	3.774	0.331
79.001	118.834	80.001	19.995	103.261	20.053	3.786	0.302
79.500	118.995	80.003	19.995	103.261	20.054	3.762	0.334
80.001	119.173	80.001	19.995	103.260	20.056	3.625	0.352
80.501	119.350	80.001	19.996	103.260	20.054	3.747	0.346
81.000	119.531	80.002	19.996	103.259	20.053	3.843	0.356
81.501	119.699	80.001	19.996	103.259	20.054	3.745	0.354
82.001	119.890	80.001	19.995	103.259	20.053	3.788	0.354
82.501	120.032	80.002	19.995	103.263	20.053	3.821	0.346
83.000	120.239	80.001	19.995	103.266	20.055	3.696	0.341
83.500	120.418	80.002	19.995	103.265	20.055	3.660	0.367
84.000	120.593	80.001	19.996	103.265	20.053	3.796	0.370
84.500	120.767	80.001	19.997	103.264	20.053	3.798	0.352
85.000	120.975	80.002	19.997	103.261	20.054	3.731	0.366
85.501	121.132	80.000	19.996	103.258	20.053	3.812	0.374
86.001	121.312	80.001	19.996	103.259	20.055	3.680	0.350
86.500	121.481	80.001	19.997	103.259	20.055	3.700	0.343
87.000	121.686	80.002	19.996	103.260	20.055	3.690	0.362
87.500	121.863	80.001	19.996	103.264	20.053	3.822	0.378
88.001	122.050	80.000	19.997	103.265	20.055	3.670	0.373
88.501	122.250	80.000	19.998	103.265	20.053	3.820	0.376
89.000	122.450	80.001	19.997	103.269	20.055	3.692	0.393
89.500	122.639	80.001	19.995	103.272	20.054	3.710	0.394
90.000	122.868	80.001	19.997	103.274	20.054	3.725	0.404
90.500	123.018	80.001	19.995	103.275	20.058	3.476	0.399
91.000	123.226	80.000	19.996	103.275	20.056	3.605	0.369
91.500	123.410	80.001	19.998	103.276	20.058	3.456	0.375
92.000	123.603	80.001	19.996	103.276	20.055	3.668	0.384
92.500	123.819	80.000	19.996	103.273	20.054	3.727	0.393
93.001	123.998	79.999	19.998	103.274	20.055	3.652	0.402
93.501	124.229	80.000	19.997	103.277	20.057	3.548	0.403
94.001	124.430	80.001	19.996	103.277	20.055	3.672	0.421
94.501	124.617	79.999	19.996	103.276	20.053	3.804	0.411
95.000	124.823	79.999	19.996	103.275	20.055	3.672	0.391
95.500	125.037	80.000	19.997	103.274	20.055	3.702	0.406
96.000	125.217	79.999	19.998	103.273	20.056	3.576	0.407
96.501	125.427	80.001	19.997	103.272	20.055	3.703	0.392
97.001	125.629	80.001	19.996	103.273	20.055	3.650	0.401
97.500	125.816	80.001	19.996	103.273	20.054	3.715	0.401
98.000	126.028	79.999	19.997	103.272	20.055	3.698	0.394
98.500	126.299	80.002	19.995	103.268	20.055	3.672	0.440
99.000	126.471	80.002	19.996	103.265	20.054	3.737	0.463
99.501	126.704	80.001	19.996	103.266	20.051	3.934	0.424
100.001	126.877	80.001	19.997	103.266	20.055	3.643	0.405
100.501	127.098	80.003	19.995	103.267	20.053	3.786	0.400
101.000	127.303	80.002	19.996	103.271	20.053	3.784	0.410
101.500	127.554	80.001	19.997	103.273	20.055	3.666	0.441
102.000	127.715	80.002	19.995	103.274	20.052	3.890	0.434
102.500	127.951	80.002	19.995	103.276	20.053	3.800	0.405
103.001	128.163	80.004	19.994	103.280	20.053	3.843	0.423
103.501	128.368	80.004	19.995	103.278	20.053	3.853	0.433
104.000	128.637	80.003	19.995	103.278	20.052	3.896	0.445
104.500	128.845	80.004	19.995	103.273	20.052	3.863	0.475
105.000	129.057	80.003	19.995	103.270	20.052	3.890	0.449
105.500	129.251	80.005	19.994	103.266	20.051	3.945	0.413
106.000	129.520	80.004	19.995	103.271	20.054	3.774	0.434
106.501	129.715	80.003	19.995	103.274	20.053	3.824	0.463
107.001	129.921	80.004	19.995	103.276	20.052	3.865	0.432
107.500	130.148	80.004	19.995	103.280	20.053	3.783	0.417
108.000	130.371	80.003	19.993	103.283	20.053	3.812	0.442
108.500	130.564	80.003	19.994	103.279	20.050	4.050	0.433
109.000	130.840	80.004	19.995	103.275	20.054	3.757	0.443
109.500	131.005	80.003	19.995	103.274	20.052	3.926	0.456
110.001	131.280	80.004	19.994	103.273	20.052	3.894	0.441
110.501	131.486	80.003	19.993	103.271	20.052	3.922	0.460
111.000	131.690	80.003	19.993	103.271	20.053	3.800	0.446
111.500	131.923	80.001	19.995	103.272	20.054	3.753	0.424
112.000	132.150	80.003	19.996	103.270	20.053	3.786	0.448
112.500	132.388	80.001	19.995	103.272	20.052	3.906	0.462
113.000	132.612	80.001	19.995	103.272	20.051	3.957	0.464
113.500	132.823	80.002	19.995	103.272	20.050	4.032	0.449
114.000	133.045	80.002	19.996	103.270	20.053	3.821	0.434
114.500	133.279	80.002	19.995	103.271	20.052	3.906	0.444
115.000	133.522	80.001	19.995	103.271	20.050	4.026	0.466
115.500	133.775	80.002	19.995	103.270	20.052	3.888	0.487
116.000	133.970	80.002	19.995	103.270	20.053	3.788	0.473
116.500	134.222	80.001	19.995	103.271	20.051	3.948	0.448
117.000	134.405	80.003	19.995	103.269	20.054	3.725	0.441
117.500	134.630	80.000	19.996	103.266	20.052	3.857	0.422
118.000	134.927	80.002	19.995	103.265	20.053	3.804	0.465
118.500	135.144	80.001	19.996	103.263	20.055	3.688	0.517
119.000	135.374	80.002	19.995	103.263	20.048	4.209	0.480
119.500	135.603	80.002	19.995	103.263	20.053	3.796	0.453
120.000	135.831	80.003	19.996	103.265	20.052	3.910	0.458
120.500	136.035	80.002	19.996	103.268	20.055	3.670	0.445
121.000	136.322	80.002	19.995	103.269	20.051	3.981	0.461
121.500	136.533	80.004	19.994	103.269	20.050	4.026	0.494
122.001	136.742	80.002	19.996	103.268	20.051	3.972	0.459
122.501	137.002	80.003	19.994	103.266	20.051	3.937	0.445
123.001	137.256	80.002	19.995	103.265	20.053	3.825	0.492
123.500	137.483	80.002	19.995	103.264	20.053	3.794	0.498
124.000	137.715	80.001	19.996	103.266	20.053	3.809	0.470
124.500	137.979	80.004	19.996	103.273	20.053	3.846	0.478
125.001	138.230	80.002	19.995	103.277	20.052	3.897	0.505
125.501	138.410	80.003	19.995	103.276	20.052	3.914	0.472
126.001	138.659	80.004	19.993	103.276	20.052	3.920	0.430
126.501	138.925	80.003	19.995	103.274	20.055	3.698	0.472
127.001	139.182	80.001	19.995	103.269	20.052	3.859	0.519
127.500	139.410	80.003	19.995	103.266	20.053	3.796	0.504
128.000	139.634	80.003	19.995	103.267	20.053	3.780	0.469
128.500	139.895	80.003	19.995	103.265	20.052	3.926	0.469
129.000	140.118	80.001	19.996	103.267	20.054	3.739	0.484
129.500	140.338	80.004	19.995	103.267	20.052	3.871	0.463
130.000	140.607	80.003	19.994	103.269	20.054	3.718	0.466
130.500	140.844	80.003	19.994	103.271	20.053	3.812	0.497
131.000	141.105	80.003	19.996	103.272	20.054	3.771	0.502
131.500	141.327	80.002	19.994	103.271	20.055	3.678	0.491
132.000	141.558	80.003	19.994	103.270	20.054	3.737	0.468
132.500	141.799	80.003	19.994	103.264	20.051	3.934	0.463
133.000	142.034	80.003	19.995	103.241	20.051	3.928	0.474
133.500	142.319	80.002	19.995	103.229	20.052	3.855	0.497
134.000	142.521	80.005	19.995	103.226	20.050	4.030	0.503
134.500	142.797	80.004	19.993	103.227	20.051	3.989	0.483
135.000	143.027	80.003	19.994	103.236	20.052	3.885	0.492
135.500	143.315	80.004	19.993	103.290	20.053	3.794	0.512
136.000	143.528	80.002	19.995	103.314	20.055	3.702	0.509
136.500	143.791	80.002	19.994	103.320	20.053	3.840	0.489
137.000	144.053	80.002	19.994	103.320	20.053	3.810	0.500
137.500	144.254	80.003	19.995	103.315	20.051	3.954	0.494
138.000	144.534	80.003	19.995	103.280	20.052	3.855	0.472
138.500	144.784	80.001	19.995	103.268	20.056	3.627	0.505
139.000	145.028	80.000	19.996	103.268	20.054	3.726	0.512
139.500	145.253	80.002	19.994	103.268	20.053	3.789	0.482
140.000	145.512	80.002	19.995	103.267	20.056	3.576	0.477
140.500	145.785	80.001	19.995	103.267	20.054	3.767	0.508
141.000	146.055	80.001	19.996	103.266	20.055	3.647	0.537
141.501	146.284	80.002	19.995	103.266	20.054	3.771	0.520
142.000	146.539	80.001	19.995	103.266	20.053	3.789	0.491
142.500	146.794	80.003	19.995	103.265	20.052	3.903	0.497
143.000	147.077	80.001	19.996	103.265	20.054	3.767	0.524
143.500	147.319	80.001	19.995	103.265	20.053	3.808	0.531
144.000	147.518	80.003	19.995	103.262	20.055	3.696	0.483
144.500	147.777	80.002	19.996	103.261	20.053	3.812	0.450
145.000	148.040	80.001	19.995	103.262	20.052	3.879	0.490
145.500	148.264	80.003	19.996	103.263	20.052	3.863	0.504
146.000	148.532	80.002	19.995	103.263	20.054	3.722	0.489
146.500	148.800	80.002	19.995	103.264	20.055	3.669	0.514
147.000	149.028	80.001	19.995	103.264	20.053	3.797	0.516
147.500	149.294	80.001	19.996	103.263	20.049	4.074	0.495
148.000	149.552	80.000	19.995	103.262	20.055	3.694	0.509
148.500	149.761	80.000	19.995	103.261	20.054	3.775	0.495
149.000	150.029	80.000	19.996	103.261	20.052	3.859	0.472
149.500	150.289	80.002	19.995	103.261	20.054	3.777	0.502
150.000	150.535	80.001	19.995	103.260	20.053	3.850	0.517
150.500	150.806	80.000	19.995	103.260	20.055	3.692	0.512
151.000	151.040	80.001	19.995	103.259	20.052	3.924	0.511
151.500	151.311	80.000	19.996	103.259	20.053	3.781	0.505
152.000	151.553	80.001	19.996	103.260	20.055	3.641	0.509
152.500	151.794	80.001	19.996	103.260	20.055	3.698	0.498
153.000	152.077	80.002	19.995	103.260	20.056	3.608	0.504
153.500	152.331	80.001	19.996	103.260	20.054	3.708	0.531
154.000	152.559	80.003	19.996	103.260	20.054	3.755	0.510
154.500	152.757	80.001	19.996	103.259	20.054	3.751	0.454
155.000	153.051	80.002	19.996	103.260	20.055	3.653	0.459
155.500	153.302	80.002	19.996	103.259	20.053	3.803	0.518
156.000	153.544	80.003	19.995	103.259	20.054	3.724	0.519
156.500	153.799	80.003	19.995	103.259	20.053	3.850	0.495
157.000	154.031	80.002	19.995	103.256	20.052	3.862	0.492
157.500	154.307	80.003	19.996	103.255	20.055	3.653	0.498
158.000	154.554	80.002	19.996	103.255	20.055	3.677	0.515
158.500	154.815	80.001	19.997	103.255	20.054	3.773	0.516
159.000	155.068	80.002	19.996	103.255	20.056	3.616	0.511
159.500	155.330	80.002	19.996	103.257	20.053	3.809	0.514
160.000	155.569	80.001	19.996	103.258	20.052	3.864	0.508
160.500	155.819	80.002	19.996	103.258	20.054	3.769	0.496
161.000	156.083	80.004	19.996	103.258	20.051	3.962	0.501
161.500	156.295	80.003	19.996	103.258	20.052	3.907	0.495
162.000	156.542	80.000	19.996	103.258	20.053	3.819	0.468
162.500	156.810	80.001	19.995	103.258	20.054	3.772	0.487
163.000	157.098	80.000	19.996	103.258	20.051	3.941	0.535
163.500	157.345	80.001	19.996	103.258	20.055	3.687	0.545
164.000	157.628	80.004	19.994	103.258	20.051	3.986	0.532
164.500	157.881	80.002	19.996	103.256	20.052	3.905	0.533
165.000	158.115	80.002	19.996	103.257	20.055	3.681	0.512
165.500	158.389	80.001	19.996	103.257	20.051	3.978	0.498
166.000	158.593	80.002	19.995	103.254	20.052	3.864	0.493
166.500	158.886	80.002	19.996	103.253	20.052	3.860	0.488
167.000	159.113	80.001	19.996	103.253	20.051	3.974	0.509
167.500	159.403	80.002	19.995	103.249	20.051	3.952	0.518
168.000	159.630	80.002	19.995	103.243	20.050	4.051	0.517
168.500	159.888	80.003	19.995	103.245	20.053	3.844	0.501
169.000	160.099	80.002	19.995	103.243	20.052	3.907	0.477
169.500	160.383	80.001	19.996	103.242	20.054	3.754	0.482
170.000	160.670	80.002	19.996	103.242	20.054	3.711	0.533
170.500	160.885	80.002	19.995	103.247	20.051	3.957	0.537
171.000	161.148	80.001	19.996	103.249	20.053	3.835	0.490
171.500	161.420	80.000	19.997	103.249	20.054	3.760	0.507
172.000	161.674	80.001	19.996	103.247	20.051	3.980	0.531
172.500	161.917	80.002	19.997	103.246	20.051	3.939	0.511
