Sample ID:	C:\MCC\MCC Cal\Test\LW_GypBoard_Painted_Paper_MCC_30K_min_211130_R1.txt
Sample Weight (mg):	4.49
Heating Rate (C/s):	0.5
Combustor Temp (C):	900
N2 Flow Rate (cc/min):	80
O2 Flow Rate (cc/min):	20
Calibration File:	C:\MCC\MCC Cal\Coeff1 JN10440_30_210304.txt.txt
T Correction Coefficients:	0	1.024463	0
Time Shift (s):	14
*
Time (s)	Temperature (C)	N2 flow rate (cc/min)	O2 flow rate (cc/min)	Flow Rate (cc/min)	Oxygen (%)	HRR (W/g)	Heating rate (C/s)
0.000	110.761	80.012	19.996	103.071	20.200	-0.100	0.002
0.500	110.757	80.011	19.995	103.074	20.198	0.012	-0.012
1.000	110.734	79.985	19.995	103.074	20.197	0.069	-0.022
1.500	110.728	80.001	19.995	103.070	20.199	-0.037	-0.028
2.000	110.746	80.011	19.993	103.068	20.202	-0.273	-0.009
2.500	110.774	80.012	19.992	103.064	20.199	-0.035	0.029
3.000	110.769	80.009	19.993	103.063	20.198	0.004	0.035
3.500	110.763	79.995	19.995	103.065	20.198	0.035	0.006
4.000	110.700	80.014	19.994	103.064	20.197	0.092	-0.040
4.500	110.726	80.002	19.994	103.068	20.196	0.130	-0.053
5.000	110.700	80.000	19.993	103.066	20.197	0.067	-0.019
5.500	110.740	80.005	19.993	103.064	20.195	0.206	0.007
6.000	110.755	79.997	19.994	103.063	20.198	0.033	0.034
6.500	110.776	80.007	19.994	103.062	20.197	0.100	0.046
7.000	110.754	79.997	19.996	103.062	20.198	0.008	0.018
7.500	110.743	80.002	19.995	103.063	20.199	-0.083	-0.017
8.000	110.758	80.003	19.994	103.063	20.198	0.024	-0.014
8.501	110.726	80.000	19.994	103.062	20.198	0.049	-0.006
9.001	110.755	80.009	19.995	103.062	20.197	0.055	-0.010
9.500	110.731	80.001	19.994	103.059	20.195	0.208	0.001
10.001	110.743	80.001	19.996	103.058	20.195	0.204	-0.003
10.501	110.754	80.004	19.995	103.057	20.197	0.124	0.006
11.000	110.781	80.000	19.995	103.057	20.195	0.220	0.031
11.500	110.787	80.004	19.995	103.061	20.194	0.299	0.035
12.000	110.779	80.002	19.996	103.069	20.191	0.505	0.016
12.500	110.803	79.998	19.996	103.076	20.189	0.655	0.007
13.000	110.804	80.002	19.994	103.084	20.191	0.513	0.020
13.501	110.767	80.006	19.993	103.091	20.189	0.627	-0.005
14.001	110.758	80.004	19.995	103.095	20.192	0.480	-0.040
14.500	110.781	80.001	19.995	103.096	20.189	0.637	-0.016
15.000	110.768	79.999	19.996	103.098	20.189	0.665	0.011
15.500	110.740	80.003	19.995	103.099	20.191	0.529	-0.016
16.000	110.795	80.001	19.995	103.104	20.190	0.610	-0.007
16.500	110.806	80.002	19.994	103.112	20.183	1.066	0.047
17.000	110.808	80.000	19.997	103.119	20.184	1.007	0.040
17.500	110.813	79.999	19.996	103.123	20.185	0.972	0.010
18.000	110.825	80.004	19.994	103.128	20.183	1.088	0.012
18.500	110.837	80.002	19.995	103.131	20.186	0.905	0.020
19.000	110.824	79.998	19.995	103.130	20.184	1.013	0.012
19.500	110.843	80.003	19.994	103.129	20.181	1.210	0.003
20.000	110.869	80.001	19.996	103.131	20.183	1.084	0.025
20.500	110.904	80.000	19.996	103.135	20.181	1.220	0.053
21.000	110.896	80.000	19.994	103.138	20.180	1.277	0.044
21.500	110.928	80.006	19.995	103.145	20.180	1.323	0.026
22.000	110.962	80.003	19.993	103.155	20.179	1.382	0.045
22.500	110.968	80.002	19.996	103.162	20.179	1.350	0.053
23.000	110.993	80.002	19.994	103.168	20.178	1.437	0.036
23.500	110.998	80.004	19.996	103.174	20.178	1.454	0.030
24.000	111.007	80.000	19.996	103.179	20.178	1.458	0.021
24.502	111.034	80.004	19.996	103.179	20.171	1.925	0.025
25.001	111.084	80.003	19.996	103.183	20.173	1.828	0.057
25.500	111.097	80.003	19.995	103.190	20.173	1.846	0.070
26.000	111.126	79.999	19.995	103.198	20.169	2.102	0.052
26.500	111.119	80.005	19.994	103.202	20.172	1.887	0.032
27.000	111.167	80.005	19.994	103.212	20.168	2.151	0.031
27.500	111.254	80.001	19.994	103.220	20.167	2.218	0.088
28.000	111.252	80.004	19.993	103.224	20.167	2.275	0.111
28.500	111.272	80.001	19.994	103.228	20.169	2.118	0.051
29.000	111.345	80.001	19.994	103.233	20.166	2.317	0.055
29.500	111.340	80.020	19.993	103.239	20.161	2.657	0.080
30.000	111.432	80.005	19.994	103.246	20.163	2.525	0.078
30.500	111.448	79.993	19.994	103.249	20.166	2.344	0.098
31.000	111.502	80.014	19.993	103.252	20.162	2.594	0.089
31.500	111.549	80.005	19.994	103.258	20.163	2.539	0.085
32.000	111.594	79.998	19.995	103.255	20.160	2.709	0.097
32.500	111.677	80.008	19.994	103.252	20.162	2.600	0.110
33.000	111.750	80.010	19.994	103.254	20.161	2.703	0.142
33.500	111.809	80.006	19.995	103.255	20.162	2.624	0.143
34.000	111.873	80.000	19.994	103.254	20.161	2.689	0.127
34.500	111.919	80.002	19.994	103.256	20.161	2.640	0.117
35.000	111.965	79.999	19.994	103.260	20.158	2.896	0.101
35.500	112.065	80.001	19.994	103.258	20.157	2.951	0.119
36.000	112.151	80.011	19.992	103.257	20.158	2.868	0.166
36.500	112.208	80.004	19.994	103.258	20.158	2.856	0.164
37.000	112.280	79.999	19.994	103.256	20.156	3.038	0.136
37.500	112.394	80.003	19.993	103.254	20.159	2.847	0.158
38.001	112.417	80.003	19.995	103.255	20.157	2.985	0.162
38.501	112.497	80.001	19.995	103.257	20.157	2.965	0.120
39.001	112.625	80.007	19.994	103.255	20.153	3.213	0.155
39.501	112.667	80.004	19.994	103.260	20.157	2.985	0.189
40.000	112.795	79.999	19.994	103.265	20.155	3.124	0.170
40.500	112.901	80.005	19.993	103.267	20.156	3.026	0.202
41.001	112.948	79.994	19.994	103.268	20.155	3.093	0.193
41.501	113.035	80.008	19.994	103.269	20.158	2.900	0.143
42.001	113.136	80.004	19.995	103.272	20.153	3.266	0.161
42.500	113.233	80.001	19.994	103.270	20.155	3.087	0.193
43.000	113.295	80.001	19.995	103.269	20.157	2.983	0.179
43.500	113.416	79.998	19.995	103.271	20.157	2.926	0.171
44.000	113.505	79.999	19.996	103.275	20.157	2.926	0.197
44.500	113.634	80.008	19.994	103.272	20.155	3.115	0.214
45.000	113.711	80.003	19.994	103.272	20.156	3.056	0.212
45.500	113.786	79.984	19.995	103.270	20.154	3.174	0.179
46.000	113.909	80.011	19.992	103.270	20.155	3.111	0.175
46.500	114.015	80.013	19.991	103.270	20.155	3.097	0.214
47.000	114.123	80.004	19.994	103.269	20.155	3.095	0.221
47.500	114.218	80.004	19.994	103.274	20.155	3.111	0.209
48.000	114.343	80.000	19.996	103.281	20.152	3.341	0.212
48.501	114.435	79.998	19.995	103.285	20.156	3.003	0.219
49.001	114.581	80.004	19.993	103.285	20.155	3.072	0.227
49.501	114.662	80.001	19.995	103.289	20.155	3.070	0.232
50.001	114.811	80.001	19.994	103.289	20.154	3.182	0.228
50.500	114.898	79.999	19.994	103.287	20.154	3.187	0.233
51.000	115.044	80.001	19.995	103.288	20.153	3.273	0.235
51.501	115.157	80.001	19.996	103.289	20.154	3.188	0.246
52.001	115.259	79.999	19.994	103.289	20.153	3.212	0.237
52.500	115.364	79.996	19.993	103.290	20.152	3.289	0.211
53.000	115.510	80.004	19.993	103.290	20.152	3.348	0.229
53.500	115.647	80.002	19.997	103.291	20.152	3.298	0.267
54.001	115.767	80.002	19.992	103.290	20.151	3.393	0.270
54.501	115.881	80.004	19.994	103.293	20.150	3.456	0.245
55.001	116.007	80.004	19.995	103.294	20.152	3.334	0.237
55.501	116.113	80.000	19.994	103.294	20.150	3.486	0.236
56.000	116.262	80.002	19.993	103.293	20.149	3.515	0.243
56.500	116.406	80.002	19.993	103.294	20.150	3.445	0.274
57.000	116.502	79.999	19.993	103.292	20.149	3.519	0.267
57.500	116.702	80.008	19.993	103.291	20.150	3.435	0.268
58.000	116.814	80.003	19.994	103.293	20.153	3.275	0.304
58.500	116.943	80.006	19.993	103.293	20.150	3.482	0.277
59.000	117.095	80.006	19.993	103.293	20.149	3.524	0.261
59.500	117.187	80.005	19.993	103.297	20.147	3.668	0.263
60.000	117.342	80.018	19.992	103.305	20.151	3.376	0.246
60.500	117.524	80.012	19.993	103.311	20.150	3.480	0.292
61.000	117.664	80.001	19.992	103.317	20.146	3.734	0.329
61.500	117.806	80.011	19.992	103.323	20.151	3.388	0.301
62.000	117.928	80.004	19.993	103.324	20.150	3.466	0.273
62.500	118.121	80.009	19.992	103.321	20.149	3.514	0.290
63.000	118.264	80.006	19.993	103.317	20.146	3.725	0.326
63.500	118.410	79.987	19.995	103.318	20.148	3.614	0.313
64.000	118.541	79.999	19.993	103.315	20.146	3.750	0.283
64.500	118.696	79.989	19.994	103.312	20.146	3.781	0.282
65.000	118.875	80.000	19.993	103.313	20.147	3.661	0.310
65.500	119.017	80.019	19.991	103.317	20.148	3.596	0.328
66.000	119.181	80.010	19.995	103.315	20.146	3.768	0.314
66.501	119.326	80.015	19.994	103.316	20.147	3.673	0.307
67.001	119.462	80.000	19.996	103.322	20.145	3.839	0.295
67.500	119.687	79.995	19.996	103.325	20.144	3.860	0.321
68.000	119.798	79.995	19.993	103.323	20.147	3.665	0.349
68.500	119.941	79.998	19.994	103.325	20.145	3.805	0.295
69.000	120.131	80.017	19.991	103.328	20.148	3.616	0.294
69.500	120.297	80.012	19.991	103.328	20.147	3.683	0.344
70.000	120.484	80.014	19.993	103.331	20.144	3.866	0.354
70.500	120.659	80.002	19.994	103.335	20.145	3.821	0.357
71.000	120.809	80.004	19.995	103.333	20.145	3.799	0.344
71.501	121.015	79.997	19.994	103.332	20.142	4.053	0.341
72.001	121.195	80.016	19.993	103.330	20.142	4.032	0.371
72.501	121.351	80.010	19.993	103.330	20.145	3.813	0.361
73.001	121.516	80.004	19.993	103.331	20.143	3.951	0.328
73.501	121.675	79.981	19.997	103.333	20.143	3.963	0.322
74.000	121.865	80.011	19.994	103.332	20.143	3.971	0.337
74.501	122.054	80.003	19.995	103.331	20.142	4.022	0.364
75.001	122.230	80.002	19.992	103.325	20.144	3.902	0.373
75.500	122.426	80.009	19.993	103.323	20.145	3.819	0.369
76.000	122.575	79.995	19.994	103.324	20.141	4.119	0.358
76.500	122.796	80.015	19.992	103.326	20.138	4.355	0.357
77.001	122.995	79.992	19.992	103.329	20.141	4.105	0.395
77.501	123.150	79.995	19.996	103.335	20.139	4.280	0.387
78.001	123.348	79.997	19.994	103.330	20.139	4.270	0.354
78.500	123.515	79.976	20.002	103.329	20.139	4.240	0.359
79.000	123.731	80.004	19.996	103.326	20.141	4.094	0.373
79.500	123.878	79.994	19.996	103.323	20.138	4.313	0.373
80.000	124.087	79.993	19.995	103.319	20.137	4.408	0.360
80.500	124.304	80.016	19.993	103.320	20.138	4.303	0.392
81.000	124.490	80.008	19.992	103.324	20.135	4.532	0.415
81.500	124.646	79.979	19.997	103.330	20.138	4.333	0.372
82.000	124.846	80.002	19.995	103.323	20.137	4.396	0.349
82.500	125.061	80.001	19.995	103.323	20.135	4.508	0.386
83.001	125.315	80.014	19.992	103.326	20.138	4.341	0.442
83.501	125.521	80.011	19.992	103.324	20.136	4.493	0.465
84.000	125.641	80.004	19.993	103.328	20.139	4.242	0.393
84.500	125.833	80.014	19.993	103.336	20.138	4.359	0.320
85.000	126.070	80.006	19.994	103.338	20.138	4.296	0.371
85.500	126.281	80.006	19.993	103.339	20.140	4.148	0.438
86.001	126.465	80.010	19.991	103.339	20.139	4.242	0.421
86.501	126.655	80.028	19.994	103.336	20.141	4.077	0.384
87.001	126.880	80.010	19.991	103.337	20.137	4.386	0.395
87.500	127.069	80.003	19.995	103.339	20.138	4.359	0.415
88.000	127.252	79.999	19.993	103.340	20.140	4.199	0.393
88.500	127.514	79.991	19.994	103.337	20.141	4.102	0.408
89.000	127.686	79.999	19.996	103.333	20.140	4.146	0.439
89.500	127.908	79.999	19.996	103.327	20.139	4.228	0.414
90.000	128.101	80.006	19.993	103.323	20.135	4.534	0.405
90.500	128.320	79.999	19.995	103.323	20.139	4.272	0.413
91.000	128.542	80.000	20.000	103.324	20.138	4.313	0.426
91.500	128.740	80.001	19.993	103.324	20.140	4.179	0.430
92.000	128.955	80.002	19.995	103.329	20.143	3.959	0.416
92.500	129.159	79.992	19.994	103.330	20.142	4.047	0.416
93.000	129.431	80.001	19.997	103.328	20.142	4.020	0.447
93.500	129.615	80.004	19.995	103.329	20.140	4.179	0.466
94.001	129.822	79.997	19.992	103.329	20.143	3.967	0.423
94.501	130.053	80.006	19.994	103.329	20.138	4.296	0.414
95.001	130.266	80.000	19.995	103.329	20.142	4.047	0.441
95.501	130.467	80.004	19.995	103.329	20.139	4.282	0.430
96.000	130.690	80.009	19.993	103.330	20.139	4.229	0.419
96.500	130.916	80.002	19.995	103.332	20.140	4.207	0.436
97.000	131.152	79.990	19.994	103.330	20.140	4.179	0.456
97.500	131.418	80.001	19.994	103.329	20.138	4.306	0.482
98.000	131.616	79.993	19.994	103.331	20.140	4.191	0.483
98.500	131.823	80.002	19.994	103.330	20.143	3.973	0.434
99.001	132.059	79.998	19.995	103.329	20.139	4.240	0.424
99.501	132.287	79.991	19.995	103.326	20.140	4.171	0.453
100.000	132.511	80.001	19.994	103.324	20.139	4.260	0.458
100.500	132.721	80.004	19.996	103.323	20.139	4.223	0.443
101.000	132.932	80.000	19.998	103.324	20.139	4.229	0.428
101.500	133.160	80.005	19.997	103.321	20.139	4.221	0.430
102.001	133.448	79.994	19.995	103.325	20.137	4.368	0.477
102.501	133.645	79.999	19.995	103.326	20.139	4.280	0.500
103.000	133.903	80.012	19.994	103.326	20.138	4.294	0.471
103.500	134.101	79.980	19.998	103.327	20.143	3.951	0.456
104.001	134.363	80.004	19.996	103.326	20.141	4.081	0.458
104.501	134.580	79.998	19.994	103.325	20.143	3.996	0.469
105.001	134.833	80.003	19.993	103.326	20.140	4.154	0.475
105.501	135.030	79.987	19.998	103.328	20.140	4.162	0.460
106.001	135.281	79.996	19.996	103.322	20.147	3.715	0.449
106.500	135.530	80.004	19.993	103.324	20.139	4.266	0.474
107.000	135.749	80.002	19.997	103.328	20.141	4.144	0.484
107.501	135.995	80.012	19.995	103.329	20.141	4.095	0.467
108.001	136.203	80.004	19.994	103.329	20.141	4.144	0.459
108.501	136.436	79.989	19.997	103.333	20.140	4.173	0.448
109.001	136.644	80.009	19.997	103.334	20.140	4.193	0.442
109.501	136.901	79.993	19.995	103.330	20.142	4.037	0.453
110.000	137.185	79.994	19.996	103.328	20.140	4.158	0.502
110.500	137.388	80.004	19.996	103.329	20.139	4.288	0.514
111.000	137.609	80.028	19.992	103.327	20.138	4.333	0.456
111.500	137.849	79.988	19.996	103.334	20.141	4.132	0.443
112.000	138.090	80.000	19.997	103.331	20.142	4.004	0.471
112.501	138.349	80.006	19.995	103.330	20.141	4.095	0.491
113.001	138.601	80.013	19.992	103.328	20.143	3.985	0.505
113.500	138.795	79.995	19.996	103.333	20.142	4.057	0.478
114.000	138.997	79.992	19.997	103.327	20.145	3.858	0.421
114.500	139.328	79.997	19.995	103.330	20.138	4.290	0.465
115.000	139.553	80.011	19.992	103.333	20.142	4.059	0.544
115.500	139.768	79.999	19.996	103.335	20.140	4.193	0.498
116.001	140.023	80.001	19.997	103.332	20.139	4.221	0.455
116.501	140.276	79.988	19.996	103.331	20.142	4.042	0.489
117.001	140.505	79.990	19.995	103.330	20.138	4.290	0.495
117.501	140.801	80.000	19.996	103.330	20.141	4.115	0.504
118.000	141.006	80.006	19.994	103.325	20.139	4.243	0.513
118.501	141.232	79.988	19.996	103.327	20.140	4.162	0.465
119.001	141.485	79.998	19.995	103.325	20.137	4.386	0.455
119.500	141.765	79.997	19.994	103.328	20.140	4.193	0.506
120.000	142.005	80.003	19.995	103.327	20.141	4.101	0.527
120.500	142.221	80.001	19.992	103.325	20.136	4.440	0.488
121.001	142.490	80.000	19.995	103.326	20.136	4.487	0.471
121.501	142.714	80.007	19.994	103.330	20.136	4.485	0.490
122.000	142.989	80.001	19.994	103.331	20.136	4.435	0.496
122.500	143.227	80.005	19.993	103.330	20.141	4.126	0.505
123.001	143.506	79.997	19.993	103.335	20.137	4.374	0.515
123.501	143.769	80.002	19.994	103.334	20.137	4.393	0.530
124.000	144.013	80.011	19.993	103.333	20.140	4.210	0.524
124.500	144.202	80.000	19.997	103.332	20.137	4.405	0.470
125.001	144.479	80.012	19.991	103.331	20.136	4.498	0.450
125.501	144.730	79.990	19.996	103.330	20.139	4.234	0.498
126.001	144.994	80.003	19.993	103.328	20.134	4.583	0.522
126.501	145.274	80.015	19.992	103.328	20.138	4.350	0.529
127.000	145.517	80.004	19.993	103.328	20.138	4.311	0.533
127.500	145.750	80.005	19.994	103.331	20.137	4.429	0.499
128.000	146.024	80.006	19.993	103.330	20.138	4.295	0.492
128.500	146.279	80.008	19.993	103.334	20.138	4.319	0.518
129.000	146.530	79.998	19.993	103.334	20.143	3.960	0.517
129.500	146.779	80.001	19.992	103.335	20.136	4.448	0.503
130.000	146.971	79.997	19.992	103.337	20.141	4.137	0.471
130.500	147.280	80.021	19.992	103.335	20.137	4.417	0.471
131.000	147.523	80.000	19.995	103.337	20.138	4.291	0.526
131.500	147.775	80.013	19.993	103.335	20.140	4.183	0.523
132.000	147.995	79.990	19.996	103.334	20.138	4.348	0.483
132.500	148.296	80.011	19.993	103.328	20.139	4.285	0.497
133.000	148.522	80.005	19.992	103.326	20.138	4.297	0.524
133.500	148.751	80.006	19.996	103.320	20.138	4.309	0.491
134.001	149.020	80.013	19.993	103.313	20.143	3.954	0.476
134.501	149.261	80.006	19.996	103.315	20.141	4.090	0.504
135.000	149.524	79.975	19.998	103.318	20.140	4.167	0.507
135.500	149.744	79.991	19.997	103.314	20.139	4.281	0.493
136.000	149.988	80.010	19.995	103.313	20.139	4.263	0.474
136.501	150.318	80.015	19.994	103.319	20.136	4.448	0.519
137.000	150.517	79.996	19.995	103.317	20.142	4.011	0.551
137.500	150.808	80.003	19.995	103.316	20.141	4.088	0.509
138.000	151.012	80.000	19.995	103.320	20.142	4.050	0.493
138.500	151.302	80.006	19.995	103.321	20.141	4.111	0.495
139.000	151.568	79.987	19.993	103.318	20.143	3.952	0.525
139.500	151.834	80.005	19.993	103.314	20.140	4.164	0.543
140.000	152.084	80.002	19.993	103.309	20.140	4.150	0.524
140.500	152.358	80.008	19.993	103.310	20.143	3.983	0.520
141.000	152.609	80.008	19.993	103.311	20.142	4.071	0.525
141.500	152.847	80.004	19.994	103.312	20.141	4.101	0.508
142.000	153.093	80.000	19.992	103.311	20.142	4.072	0.487
142.500	153.334	79.997	19.995	103.315	20.139	4.227	0.485
143.000	153.640	80.013	19.992	103.311	20.141	4.121	0.517
143.500	153.876	79.991	19.994	103.310	20.135	4.513	0.544
144.000	154.142	80.005	19.994	103.311	20.141	4.097	0.522
144.500	154.340	80.001	19.994	103.316	20.138	4.291	0.483
145.000	154.643	80.006	19.994	103.315	20.140	4.172	0.483
145.500	154.896	80.000	19.992	103.316	20.140	4.157	0.528
146.000	155.147	80.000	19.995	103.313	20.138	4.293	0.530
146.500	155.356	80.008	19.995	103.309	20.139	4.281	0.482
147.000	155.683	80.006	19.994	103.308	20.138	4.316	0.498
147.500	155.897	80.001	19.994	103.306	20.145	3.804	0.538
148.000	156.169	80.002	19.996	103.304	20.140	4.162	0.514
148.500	156.434	80.018	19.993	103.300	20.140	4.176	0.512
149.000	156.647	80.012	19.992	103.301	20.138	4.327	0.507
149.500	156.931	80.004	19.995	103.298	20.137	4.363	0.487
150.000	157.167	80.011	19.993	103.294	20.139	4.265	0.508
150.501	157.447	80.000	19.993	103.294	20.138	4.304	0.518
151.001	157.708	80.009	19.994	103.293	20.139	4.249	0.529
151.500	157.971	80.008	19.993	103.292	20.138	4.310	0.532
152.000	158.186	80.002	19.994	103.290	20.139	4.276	0.501
152.500	158.462	80.009	19.994	103.293	20.141	4.095	0.485
153.000	158.713	80.010	19.990	103.292	20.140	4.203	0.509
153.500	158.980	79.996	19.993	103.296	20.138	4.296	0.522
154.000	159.215	80.004	19.994	103.297	20.140	4.172	0.510
154.500	159.479	80.014	19.991	103.296	20.135	4.524	0.500
155.000	159.728	80.003	19.994	103.299	20.141	4.137	0.506
155.501	159.978	80.005	19.992	103.304	20.140	4.200	0.506
156.000	160.228	80.009	19.992	103.303	20.139	4.286	0.499
156.500	160.504	79.993	19.994	103.301	20.137	4.371	0.513
157.000	160.694	80.017	19.992	103.303	20.136	4.442	0.496
157.500	160.985	79.997	19.996	103.299	20.139	4.231	0.473
158.000	161.245	80.001	19.994	103.292	20.141	4.141	0.516
158.500	161.470	80.009	19.993	103.292	20.135	4.519	0.518
159.001	161.755	80.003	19.992	103.292	20.140	4.205	0.497
159.500	162.000	80.008	19.994	103.290	20.137	4.387	0.520
160.000	162.263	80.015	19.989	103.290	20.136	4.452	0.519
160.500	162.493	79.994	19.994	103.295	20.139	4.237	0.501
161.000	162.761	79.998	19.994	103.293	20.138	4.288	0.496
161.500	162.989	80.009	19.995	103.290	20.138	4.296	0.497
162.000	163.263	80.009	19.992	103.288	20.139	4.274	0.499
162.500	163.546	80.008	19.994	103.290	20.138	4.331	0.529
163.001	163.752	79.987	19.997	103.288	20.138	4.310	0.523
163.500	164.029	79.997	19.994	103.286	20.136	4.442	0.486
164.000	164.305	80.014	19.992	103.289	20.140	4.168	0.518
164.500	164.548	79.997	19.994	103.293	20.137	4.393	0.537
165.000	164.794	80.013	19.994	103.288	20.140	4.186	0.504
165.500	165.114	80.017	19.992	103.289	20.137	4.412	0.527
166.000	165.320	80.033	19.989	103.296	20.140	4.154	0.546
166.500	165.588	79.999	19.995	103.302	20.143	3.999	0.500
167.000	165.855	80.005	19.995	103.298	20.140	4.207	0.504
167.500	166.078	80.004	19.993	103.302	20.141	4.093	0.512
168.000	166.371	80.009	19.994	103.306	20.142	4.032	0.503
168.501	166.615	79.985	19.995	103.302	20.140	4.148	0.527
169.001	166.857	80.005	19.994	103.294	20.140	4.160	0.512
169.500	167.110	80.000	19.998	103.298	20.139	4.223	0.490
170.000	167.376	80.009	19.992	103.293	20.136	4.439	0.507
170.500	167.615	80.003	19.992	103.294	20.141	4.116	0.512
171.000	167.861	80.007	19.994	103.292	20.140	4.205	0.495
171.500	168.119	79.996	19.992	103.295	20.139	4.274	0.494
172.000	168.363	79.986	19.996	103.291	20.138	4.317	0.503
172.500	168.633	79.986	19.995	103.292	20.138	4.317	0.508
