Sample ID:	C:\MCC\MCC Cal\Test\LatexPillow_B_Inner_Fabric_MCC_30K_min_211213_R3.txt
Sample Weight (mg):	4.1
Heating Rate (C/s):	0.5
Combustor Temp (C):	900
N2 Flow Rate (cc/min):	80
O2 Flow Rate (cc/min):	20
Calibration File:	C:\MCC\MCC Cal\Coeff1 JN10440_30_210304.txt.txt
T Correction Coefficients:	0	1.024463	0
Time Shift (s):	14
*
Time (s)	Temperature (C)	N2 flow rate (cc/min)	O2 flow rate (cc/min)	Flow Rate (cc/min)	Oxygen (%)	HRR (W/g)	Heating rate (C/s)
-0.001	107.444	80.014	19.995	103.053	19.920	-0.013	-0.018
0.499	107.471	80.014	19.996	103.052	19.919	0.047	0.010
1.000	107.458	80.010	19.996	103.052	19.914	0.423	0.032
1.500	107.411	80.008	19.997	103.053	19.919	0.051	-0.023
2.000	107.456	80.007	19.995	103.054	19.919	0.062	-0.031
2.500	107.445	80.008	19.994	103.053	19.920	-0.056	0.016
3.000	107.475	80.007	19.995	103.051	19.915	0.344	0.026
3.500	107.414	80.009	19.994	103.048	19.920	-0.047	-0.006
4.000	107.438	80.007	19.994	103.047	19.916	0.293	-0.033
4.500	107.445	80.006	19.995	103.047	19.916	0.306	-0.003
5.000	107.412	80.007	19.994	103.047	19.919	0.028	0.002
5.500	107.421	80.007	19.994	103.049	19.912	0.569	-0.025
6.000	107.418	80.007	19.995	103.052	19.919	0.088	-0.009
6.500	107.425	80.009	19.995	103.052	19.918	0.096	0.005
7.000	107.390	80.008	19.993	103.051	19.915	0.325	-0.012
7.500	107.434	80.007	19.993	103.051	19.921	-0.135	-0.010
8.000	107.457	80.007	19.994	103.051	19.922	-0.150	0.038
8.500	107.435	80.008	19.993	103.051	19.917	0.214	0.034
9.000	107.407	80.007	19.994	103.052	19.916	0.261	-0.024
9.500	107.409	80.008	19.995	103.052	19.918	0.118	-0.038
10.000	107.400	80.007	19.994	103.053	19.916	0.282	-0.017
10.500	107.392	80.007	19.995	103.048	19.917	0.225	-0.012
11.000	107.433	80.006	19.994	103.042	19.914	0.430	0.008
11.500	107.414	80.007	19.994	103.040	19.915	0.396	0.027
12.000	107.427	80.007	19.993	103.040	19.916	0.319	0.008
12.500	107.450	80.006	19.994	103.041	19.917	0.188	0.015
13.000	107.436	80.008	19.996	103.047	19.916	0.248	0.023
13.500	107.427	80.008	19.994	103.053	19.920	-0.034	-0.006
14.000	107.408	80.007	19.994	103.054	19.917	0.190	-0.025
14.500	107.417	80.008	19.995	103.053	19.916	0.295	-0.019
15.000	107.436	80.007	19.993	103.052	19.919	0.071	0.009
15.500	107.426	80.010	19.995	103.047	19.917	0.242	0.019
16.000	107.455	80.007	19.993	103.043	19.917	0.210	0.014
16.500	107.442	80.008	19.994	103.043	19.920	-0.026	0.017
17.000	107.426	80.008	19.993	103.044	19.922	-0.156	-0.006
17.500	107.432	80.010	19.995	103.045	19.919	0.079	-0.020
18.000	107.436	80.008	19.995	103.051	19.919	0.051	-0.000
18.500	107.456	80.010	19.993	103.055	19.918	0.120	0.017
19.000	107.467	80.008	19.994	103.055	19.917	0.201	0.028
19.500	107.398	80.008	19.995	103.055	19.918	0.137	-0.014
20.000	107.407	80.010	19.995	103.055	19.915	0.351	-0.059
20.500	107.449	80.010	19.994	103.055	19.915	0.402	-0.004
21.000	107.389	80.009	19.992	103.055	19.914	0.441	0.017
21.500	107.455	80.008	19.993	103.055	19.911	0.646	-0.006
22.000	107.448	80.010	19.994	103.055	19.919	0.060	0.032
22.500	107.427	80.009	19.993	103.061	19.917	0.188	0.016
23.000	107.462	80.011	19.994	103.068	19.914	0.458	-0.007
23.500	107.455	80.008	19.995	103.074	19.919	0.045	0.021
24.000	107.432	80.007	19.994	103.077	19.917	0.210	-0.001
24.500	107.408	80.009	19.994	103.081	19.918	0.141	-0.039
25.000	107.466	80.010	19.993	103.083	19.912	0.576	-0.006
25.500	107.450	80.010	19.995	103.080	19.917	0.227	0.039
26.000	107.474	80.010	19.995	103.082	19.915	0.328	0.025
26.500	107.448	80.009	19.994	103.088	19.918	0.096	0.002
27.000	107.462	80.009	19.994	103.092	19.915	0.377	-0.007
27.500	107.467	80.008	19.993	103.093	19.914	0.448	0.004
28.000	107.478	80.010	19.994	103.096	19.919	0.041	0.018
28.500	107.487	80.009	19.994	103.097	19.914	0.416	0.017
29.000	107.486	80.009	19.994	103.097	19.910	0.761	0.014
29.500	107.534	80.008	19.993	103.099	19.914	0.482	0.028
30.000	107.530	80.008	19.992	103.101	19.913	0.551	0.046
30.500	107.542	80.009	19.993	103.109	19.913	0.504	0.026
31.000	107.538	80.008	19.995	103.117	19.910	0.733	0.008
31.500	107.572	80.008	19.994	103.126	19.912	0.619	0.020
32.000	107.592	80.008	19.993	103.132	19.906	1.046	0.042
32.500	107.594	80.008	19.993	103.135	19.910	0.787	0.038
32.999	107.639	80.008	19.994	103.135	19.908	0.950	0.035
33.499	107.635	80.007	19.993	103.135	19.908	0.930	0.044
34.000	107.654	80.009	19.995	103.133	19.903	1.314	0.028
34.500	107.662	80.008	19.994	103.133	19.905	1.130	0.021
34.999	107.689	80.007	19.995	103.138	19.905	1.145	0.032
35.499	107.681	80.007	19.993	103.146	19.905	1.134	0.027
35.999	107.698	80.010	19.994	103.155	19.897	1.781	0.013
36.499	107.717	80.009	19.993	103.168	19.896	1.841	0.022
36.999	107.771	80.007	19.992	103.183	19.902	1.355	0.055
37.499	107.822	80.008	19.995	103.195	19.896	1.873	0.089
37.999	107.824	80.009	19.994	103.208	19.895	1.935	0.079
38.499	107.889	80.007	19.993	103.223	19.897	1.815	0.060
38.999	107.876	80.009	19.992	103.234	19.895	1.905	0.059
39.499	107.926	80.010	19.993	103.240	19.894	1.976	0.045
39.999	107.956	80.008	19.994	103.246	19.890	2.341	0.059
40.499	107.998	80.009	19.993	103.248	19.887	2.594	0.075
40.999	108.028	80.008	19.994	103.249	19.888	2.489	0.072
41.499	108.110	80.010	19.995	103.249	19.889	2.386	0.092
41.999	108.169	80.009	19.993	103.255	19.885	2.759	0.127
42.499	108.201	80.011	19.992	103.258	19.883	2.881	0.116
42.999	108.240	80.010	19.993	103.260	19.884	2.825	0.081
43.499	108.290	80.009	19.994	103.264	19.888	2.508	0.080
43.999	108.331	80.011	19.993	103.265	19.886	2.658	0.090
44.499	108.435	80.009	19.992	103.261	19.880	3.149	0.118
44.999	108.470	80.010	19.993	103.261	19.885	2.738	0.143
45.499	108.527	80.010	19.994	103.262	19.879	3.196	0.116
45.999	108.623	80.010	19.993	103.263	19.878	3.256	0.122
46.500	108.699	80.010	19.992	103.268	19.880	3.141	0.162
47.001	108.729	80.010	19.993	103.268	19.879	3.188	0.139
47.501	108.827	80.011	19.994	103.269	19.877	3.351	0.117
48.001	108.890	80.010	19.993	103.267	19.879	3.173	0.145
48.500	108.953	80.012	19.995	103.262	19.877	3.389	0.144
48.999	109.050	80.009	19.993	103.262	19.880	3.145	0.143
49.499	109.152	80.012	19.995	103.262	19.880	3.087	0.179
49.999	109.191	80.009	19.993	103.265	19.878	3.241	0.170
50.499	109.319	80.010	19.995	103.269	19.879	3.162	0.154
50.999	109.360	80.010	19.995	103.274	19.874	3.589	0.168
51.499	109.492	80.010	19.994	103.276	19.876	3.454	0.172
51.999	109.546	80.009	19.993	103.279	19.876	3.454	0.180
52.499	109.689	80.011	19.995	103.280	19.874	3.574	0.192
52.999	109.777	80.011	19.995	103.282	19.872	3.737	0.214
53.499	109.835	80.010	19.995	103.283	19.872	3.767	0.188
53.999	109.893	80.010	19.995	103.282	19.879	3.180	0.131
54.499	110.023	80.009	19.994	103.284	19.874	3.598	0.152
54.999	110.118	80.009	19.995	103.286	19.872	3.748	0.206
55.499	110.194	80.008	19.994	103.286	19.873	3.664	0.198
55.999	110.310	80.010	19.995	103.285	19.877	3.351	0.182
56.500	110.469	80.008	19.994	103.284	19.872	3.735	0.233
57.000	110.525	80.008	19.994	103.283	19.878	3.300	0.245
57.499	110.666	80.009	19.995	103.283	19.873	3.692	0.206
58.000	110.761	80.008	19.995	103.284	19.870	3.907	0.217
58.501	110.888	80.008	19.994	103.285	19.874	3.596	0.229
59.000	110.996	80.008	19.994	103.285	19.870	3.894	0.229
59.499	111.103	80.009	19.993	103.286	19.869	4.006	0.225
59.999	111.212	80.010	19.994	103.286	19.873	3.697	0.215
60.499	111.341	80.007	19.994	103.287	19.870	3.914	0.227
60.999	111.419	80.009	19.995	103.288	19.872	3.762	0.222
61.499	111.589	80.006	19.994	103.292	19.872	3.770	0.228
61.999	111.690	80.008	19.994	103.293	19.871	3.832	0.260
62.499	111.841	80.008	19.994	103.295	19.870	3.909	0.262
62.999	111.989	80.008	19.994	103.296	19.868	4.037	0.276
63.499	112.130	80.008	19.996	103.301	19.872	3.752	0.294
63.999	112.237	80.007	19.993	103.305	19.869	3.971	0.268
64.499	112.374	80.007	19.994	103.306	19.873	3.683	0.246
64.999	112.511	80.008	19.995	103.305	19.872	3.720	0.259
65.499	112.640	80.009	19.995	103.303	19.873	3.649	0.270
65.999	112.758	80.007	19.995	103.304	19.871	3.804	0.257
66.499	112.900	80.008	19.995	103.303	19.872	3.765	0.254
67.000	113.039	80.008	19.993	103.307	19.873	3.693	0.271
67.500	113.159	80.007	19.994	103.310	19.870	3.869	0.270
67.999	113.321	80.008	19.994	103.309	19.867	4.173	0.270
68.499	113.433	80.009	19.994	103.306	19.872	3.763	0.278
69.000	113.568	80.008	19.994	103.304	19.870	3.928	0.260
69.500	113.743	80.008	19.995	103.303	19.866	4.233	0.279
69.999	113.916	80.007	19.994	103.307	19.865	4.319	0.329
70.499	114.083	80.008	19.995	103.314	19.871	3.841	0.344
71.000	114.221	80.009	19.994	103.318	19.872	3.759	0.323
71.500	114.380	80.009	19.994	103.322	19.871	3.824	0.301
71.999	114.532	80.010	19.995	103.322	19.866	4.188	0.304
72.499	114.679	80.008	19.994	103.316	19.864	4.360	0.305
72.999	114.838	80.009	19.994	103.310	19.871	3.839	0.303
73.499	115.029	80.009	19.993	103.302	19.865	4.324	0.328
73.999	115.113	80.008	19.994	103.295	19.873	3.702	0.313
74.499	115.308	80.009	19.995	103.294	19.870	3.905	0.277
74.999	115.489	80.010	19.996	103.295	19.870	3.905	0.328
75.499	115.678	80.008	19.994	103.298	19.869	3.983	0.373
75.999	115.819	80.009	19.994	103.300	19.872	3.708	0.349
76.499	116.010	80.008	19.995	103.306	19.871	3.813	0.330
76.999	116.168	80.008	19.994	103.308	19.868	4.073	0.341
77.499	116.321	80.008	19.995	103.313	19.871	3.815	0.331
77.999	116.528	80.010	19.994	103.317	19.863	4.442	0.336
78.499	116.694	80.008	19.996	103.321	19.869	3.970	0.366
78.999	116.886	80.008	19.993	103.319	19.867	4.143	0.365
79.499	117.043	80.007	19.994	103.317	19.869	4.008	0.354
79.999	117.195	80.009	19.994	103.314	19.871	3.830	0.329
80.499	117.382	80.009	19.995	103.314	19.871	3.800	0.324
80.999	117.569	80.007	19.996	103.314	19.869	3.961	0.356
81.499	117.733	80.008	19.995	103.317	19.869	3.963	0.363
82.000	117.885	80.006	19.994	103.319	19.870	3.884	0.334
82.500	118.055	80.008	19.996	103.323	19.869	3.991	0.319
82.999	118.265	80.007	19.994	103.324	19.871	3.837	0.351
83.499	118.439	80.008	19.995	103.325	19.868	4.021	0.382
83.999	118.597	80.008	19.995	103.325	19.872	3.708	0.358
84.499	118.835	80.007	19.994	103.326	19.867	4.113	0.364
84.999	118.999	80.009	19.994	103.326	19.866	4.206	0.399
85.499	119.207	80.007	19.995	103.325	19.867	4.118	0.387
86.000	119.350	80.009	19.996	103.325	19.867	4.111	0.361
86.500	119.550	80.009	19.996	103.325	19.869	3.970	0.347
86.999	119.775	80.008	19.997	103.326	19.870	3.899	0.384
87.499	119.951	80.007	19.995	103.326	19.871	3.785	0.413
87.999	120.181	80.009	19.995	103.325	19.873	3.652	0.403
88.499	120.340	80.007	19.995	103.326	19.874	3.609	0.397
88.999	120.575	80.007	19.996	103.327	19.871	3.852	0.392
89.499	120.777	80.007	19.996	103.327	19.872	3.723	0.415
89.999	120.968	80.007	19.996	103.328	19.868	4.032	0.415
90.499	121.160	80.008	19.996	103.329	19.871	3.820	0.388
90.999	121.378	80.008	19.995	103.329	19.868	4.021	0.397
91.499	121.570	80.007	19.996	103.329	19.863	4.440	0.410
91.999	121.775	80.007	19.995	103.330	19.870	3.895	0.404
92.499	121.935	80.008	19.996	103.331	19.867	4.142	0.381
92.999	122.167	80.008	19.995	103.331	19.868	4.060	0.379
93.499	122.355	80.007	19.993	103.331	19.864	4.373	0.406
94.000	122.611	80.006	19.995	103.331	19.867	4.101	0.432
94.500	122.809	80.008	19.995	103.330	19.864	4.362	0.449
94.999	123.041	80.008	19.996	103.329	19.868	4.038	0.441
95.499	123.237	80.007	19.995	103.329	19.863	4.480	0.429
95.999	123.415	80.008	19.995	103.330	19.871	3.803	0.402
96.499	123.657	80.008	19.995	103.329	19.867	4.107	0.397
96.999	123.888	80.009	19.994	103.330	19.866	4.195	0.447
97.499	124.089	80.009	19.995	103.329	19.867	4.165	0.452
97.999	124.317	80.008	19.994	103.329	19.866	4.189	0.430
98.499	124.468	80.009	19.995	103.328	19.866	4.206	0.404
98.999	124.741	80.009	19.994	103.330	19.868	4.032	0.402
99.499	124.974	80.009	19.995	103.329	19.864	4.377	0.465
99.999	125.164	80.008	19.993	103.330	19.865	4.262	0.464
100.499	125.412	80.009	19.993	103.330	19.867	4.144	0.431
100.999	125.651	80.009	19.994	103.331	19.864	4.339	0.462
101.499	125.876	80.011	19.994	103.333	19.867	4.131	0.475
101.999	126.084	80.011	19.995	103.333	19.863	4.465	0.448
102.499	126.318	80.010	19.993	103.334	19.870	3.942	0.438
102.999	126.557	80.011	19.994	103.334	19.866	4.251	0.458
103.499	126.725	80.009	19.994	103.334	19.864	4.362	0.440
103.999	126.976	80.010	19.995	103.331	19.867	4.169	0.413
104.499	127.203	80.009	19.995	103.331	19.863	4.433	0.449
104.999	127.402	80.010	19.993	103.330	19.862	4.562	0.452
105.499	127.620	80.009	19.994	103.330	19.864	4.386	0.421
105.999	127.868	80.009	19.993	103.329	19.861	4.648	0.442
106.499	128.126	80.009	19.993	103.329	19.865	4.317	0.486
106.999	128.321	80.009	19.993	103.330	19.867	4.124	0.479
107.500	128.581	80.011	19.992	103.333	19.862	4.568	0.455
108.000	128.788	80.010	19.993	103.334	19.864	4.411	0.461
108.499	129.045	80.010	19.993	103.334	19.864	4.343	0.465
108.999	129.244	80.009	19.993	103.334	19.864	4.351	0.460
109.499	129.481	80.010	19.994	103.334	19.863	4.446	0.446
109.999	129.704	80.009	19.994	103.331	19.865	4.270	0.448
110.499	129.920	80.010	19.994	103.331	19.864	4.360	0.449
110.999	130.156	80.008	19.994	103.332	19.866	4.221	0.446
111.499	130.404	80.010	19.994	103.332	19.864	4.362	0.468
111.999	130.620	80.009	19.994	103.332	19.866	4.182	0.473
112.499	130.877	80.010	19.996	103.333	19.867	4.137	0.468
112.999	131.109	80.009	19.993	103.334	19.868	4.062	0.481
113.499	131.339	80.009	19.994	103.334	19.866	4.180	0.475
113.999	131.567	80.008	19.994	103.333	19.868	4.025	0.460
114.499	131.848	80.010	19.995	103.333	19.863	4.420	0.483
114.999	132.022	80.010	19.994	103.333	19.867	4.167	0.482
115.499	132.286	80.009	19.994	103.331	19.865	4.311	0.447
115.999	132.528	80.010	19.995	103.330	19.863	4.439	0.472
116.499	132.758	80.010	19.994	103.331	19.865	4.261	0.489
116.999	132.991	80.009	19.994	103.330	19.863	4.444	0.468
117.500	133.269	80.009	19.994	103.329	19.868	4.021	0.487
118.000	133.500	80.009	19.993	103.329	19.866	4.225	0.510
118.499	133.745	80.008	19.994	103.328	19.866	4.206	0.493
118.999	134.008	80.008	19.993	103.327	19.865	4.334	0.492
119.499	134.206	80.008	19.993	103.326	19.866	4.246	0.484
120.000	134.466	80.009	19.994	103.326	19.867	4.152	0.460
120.500	134.690	80.010	19.994	103.325	19.865	4.317	0.471
120.999	134.898	80.010	19.994	103.326	19.865	4.296	0.458
121.499	135.233	80.011	19.995	103.326	19.869	3.946	0.487
121.999	135.431	80.009	19.994	103.326	19.864	4.343	0.539
122.499	135.725	80.009	19.994	103.330	19.868	4.032	0.513
122.999	135.948	80.010	19.994	103.330	19.865	4.304	0.504
123.499	136.255	80.010	19.994	103.330	19.866	4.188	0.523
123.999	136.413	80.007	19.994	103.330	19.868	4.057	0.497
124.499	136.694	80.010	19.994	103.329	19.863	4.433	0.452
124.999	136.922	80.011	19.993	103.326	19.869	3.995	0.474
125.499	137.191	80.010	19.995	103.327	19.869	3.954	0.503
125.999	137.436	80.008	19.994	103.327	19.867	4.152	0.506
126.499	137.695	80.009	19.995	103.327	19.868	4.064	0.509
126.999	137.974	80.011	19.993	103.328	19.867	4.165	0.521
127.499	138.241	80.012	19.994	103.327	19.869	3.952	0.542
127.999	138.450	80.010	19.995	103.327	19.867	4.130	0.511
128.500	138.771	80.010	19.994	103.327	19.868	4.090	0.503
129.000	138.963	80.013	19.995	103.326	19.865	4.289	0.521
129.500	139.207	80.011	19.992	103.325	19.869	3.974	0.475
130.000	139.467	80.011	19.994	103.326	19.870	3.918	0.470
130.500	139.727	80.011	19.994	103.325	19.869	3.976	0.512
131.000	139.978	80.011	19.995	103.324	19.866	4.254	0.515
131.500	140.266	80.010	19.993	103.324	19.869	3.950	0.525
132.000	140.515	80.012	19.994	103.324	19.868	4.091	0.538
132.500	140.761	80.011	19.993	103.323	19.872	3.726	0.516
133.000	141.028	80.012	19.994	103.322	19.865	4.267	0.503
133.500	141.268	80.011	19.994	103.323	19.869	3.954	0.510
134.000	141.508	80.011	19.994	103.323	19.867	4.102	0.494
134.500	141.782	80.011	19.993	103.324	19.868	4.023	0.497
135.000	142.022	80.012	19.993	103.323	19.867	4.117	0.514
135.500	142.292	80.011	19.993	103.322	19.870	3.935	0.512
136.000	142.526	80.011	19.993	103.321	19.869	4.018	0.507
136.500	142.802	80.011	19.994	103.322	19.866	4.224	0.507
137.000	143.051	80.011	19.993	103.321	19.867	4.145	0.517
137.500	143.310	80.011	19.994	103.322	19.865	4.291	0.516
138.000	143.562	80.009	19.994	103.322	19.867	4.158	0.510
138.500	143.817	80.012	19.993	103.322	19.866	4.201	0.509
139.000	144.087	80.009	19.994	103.320	19.868	4.074	0.516
139.500	144.395	80.016	19.994	103.320	19.864	4.378	0.552
140.000	144.621	80.013	19.994	103.318	19.865	4.286	0.556
140.500	144.858	80.008	19.995	103.318	19.866	4.241	0.498
141.000	145.136	80.012	19.993	103.319	19.862	4.537	0.489
141.500	145.400	80.010	19.993	103.319	19.864	4.339	0.528
142.000	145.642	80.008	19.994	103.315	19.867	4.129	0.524
142.500	145.926	80.011	19.994	103.311	19.864	4.389	0.516
143.000	146.182	80.006	19.995	103.306	19.865	4.311	0.533
143.500	146.430	80.007	19.995	103.301	19.866	4.185	0.522
144.000	146.690	80.010	19.995	103.297	19.863	4.421	0.507
144.500	146.935	80.007	19.995	103.302	19.864	4.385	0.507
145.000	147.220	80.009	19.994	103.306	19.865	4.264	0.517
145.500	147.471	80.009	19.995	103.309	19.865	4.292	0.533
146.000	147.716	80.010	19.993	103.309	19.865	4.286	0.516
146.500	148.000	80.007	19.994	103.310	19.868	4.078	0.512
147.000	148.213	80.010	19.995	103.308	19.864	4.367	0.513
147.500	148.448	80.009	19.995	103.304	19.866	4.238	0.473
148.000	148.717	80.010	19.995	103.302	19.869	4.000	0.476
148.500	148.961	80.009	19.993	103.308	19.869	3.994	0.508
149.000	149.272	80.009	19.994	103.307	19.866	4.194	0.534
149.500	149.527	80.009	19.994	103.308	19.866	4.221	0.561
150.000	149.785	80.009	19.994	103.308	19.868	4.046	0.539
150.500	150.045	80.006	19.995	103.307	19.867	4.153	0.515
151.000	150.269	80.005	19.994	103.301	19.869	4.009	0.501
151.500	150.536	80.008	19.995	103.298	19.869	3.945	0.488
152.000	150.803	80.008	19.995	103.293	19.870	3.889	0.512
152.500	151.062	80.008	19.994	103.291	19.872	3.758	0.529
153.000	151.336	80.008	19.996	103.291	19.870	3.887	0.529
153.500	151.537	80.005	19.993	103.292	19.865	4.264	0.504
154.000	151.795	80.008	19.994	103.292	19.867	4.131	0.467
154.500	152.038	80.008	19.995	103.299	19.867	4.151	0.480
155.000	152.306	80.010	19.996	103.300	19.868	4.080	0.506
155.500	152.561	80.007	19.995	103.299	19.871	3.842	0.517
156.000	152.841	80.007	19.994	103.298	19.869	3.983	0.529
156.500	153.112	80.008	19.995	103.299	19.871	3.795	0.543
157.000	153.338	80.008	19.995	103.293	19.867	4.168	0.524
157.500	153.576	80.008	19.994	103.292	19.869	3.975	0.480
158.000	153.824	80.008	19.995	103.292	19.866	4.236	0.475
158.500	154.063	80.009	19.995	103.292	19.861	4.594	0.486
159.000	154.348	80.007	19.995	103.290	19.871	3.825	0.505
159.500	154.582	80.007	19.994	103.289	19.866	4.236	0.522
160.000	154.830	80.010	19.994	103.293	19.868	4.020	0.501
160.500	155.091	80.009	19.996	103.295	19.874	3.621	0.495
161.000	155.354	80.008	19.995	103.296	19.877	3.383	0.517
161.500	155.585	80.008	19.995	103.298	19.869	4.017	0.509
162.000	155.852	80.007	19.995	103.299	19.869	4.017	0.496
162.500	156.092	80.009	19.994	103.295	19.872	3.739	0.503
163.000	156.369	80.013	19.995	103.294	19.868	4.073	0.512
163.500	156.599	80.005	19.994	103.296	19.874	3.552	0.512
164.000	156.900	80.009	19.994	103.294	19.873	3.627	0.519
164.500	157.149	80.008	19.995	103.294	19.869	3.964	0.541
165.000	157.415	80.009	19.995	103.294	19.874	3.604	0.532
165.500	157.631	80.008	19.996	103.293	19.872	3.758	0.498
166.000	157.916	80.011	19.994	103.290	19.868	4.039	0.492
166.500	158.157	80.008	19.993	103.292	19.869	4.015	0.514
167.000	158.430	80.008	19.994	103.290	19.874	3.587	0.520
167.500	158.691	80.007	19.993	103.290	19.872	3.743	0.524
168.000	158.905	80.010	19.994	103.290	19.870	3.867	0.505
168.500	159.149	80.009	19.995	103.290	19.875	3.475	0.467
169.000	159.438	80.009	19.994	103.290	19.872	3.745	0.496
169.500	159.689	80.009	19.994	103.290	19.870	3.908	0.536
170.000	159.881	80.011	19.995	103.290	19.876	3.456	0.491
170.500	160.171	80.009	19.994	103.290	19.875	3.537	0.463
171.000	160.393	80.007	19.994	103.290	19.869	3.979	0.497
171.500	160.665	80.008	19.995	103.290	19.873	3.642	0.503
172.000	160.926	80.007	19.994	103.288	19.870	3.893	0.513
