Sample ID:	C:\MCC\MCC Cal\Test\Wood_Stud_MCC_30K_min_211004_R1.txt
Sample Weight (mg):	4.95
Heating Rate (C/s):	0.5
Combustor Temp (C):	900
N2 Flow Rate (cc/min):	80
O2 Flow Rate (cc/min):	20
Calibration File:	C:\MCC\MCC Cal\Coeff1 JN10440_30_210304.txt.txt
T Correction Coefficients:	0	1.024463	0
Time Shift (s):	14
*
Time (s)	Temperature (C)	N2 flow rate (cc/min)	O2 flow rate (cc/min)	Flow Rate (cc/min)	Oxygen (%)	HRR (W/g)	Heating rate (C/s)
0.000	108.476	79.997	19.995	100.649	20.040	-0.262	-0.012
0.500	108.521	79.998	19.996	100.642	20.043	-0.471	0.012
1.000	108.494	79.999	19.995	100.639	20.037	-0.076	0.030
1.500	108.464	79.999	19.996	100.636	20.042	-0.385	-0.020
2.000	108.471	79.997	19.995	100.631	20.041	-0.318	-0.040
2.500	108.491	79.998	19.996	100.626	20.042	-0.402	0.002
3.000	108.492	79.998	19.996	100.630	20.042	-0.401	0.024
3.500	108.465	79.998	19.998	100.629	20.041	-0.354	-0.002
4.000	108.472	79.997	19.997	100.628	20.037	-0.112	-0.023
4.500	108.472	79.997	19.996	100.629	20.041	-0.361	-0.007
5.000	108.477	79.998	19.997	100.636	20.040	-0.283	0.006
5.500	108.480	79.998	19.995	100.635	20.043	-0.446	0.006
6.000	108.488	79.998	19.995	100.638	20.041	-0.376	0.009
6.500	108.507	79.998	19.996	100.644	20.043	-0.489	0.019
7.000	108.492	79.997	19.995	100.645	20.042	-0.415	0.016
7.500	108.505	79.998	19.996	100.638	20.042	-0.406	0.001
8.000	108.475	79.997	19.996	100.637	20.040	-0.302	-0.009
8.500	108.498	79.998	19.996	100.642	20.039	-0.232	-0.012
9.000	108.444	79.998	19.996	100.642	20.038	-0.159	-0.019
9.500	108.487	79.996	19.995	100.642	20.038	-0.180	-0.021
10.001	108.488	79.998	19.996	100.645	20.041	-0.323	0.017
10.501	108.503	79.995	19.997	100.644	20.038	-0.181	0.030
11.000	108.489	79.996	19.995	100.643	20.040	-0.252	0.009
11.501	108.475	79.996	19.996	100.644	20.040	-0.254	-0.013
12.001	108.480	79.995	19.995	100.647	20.039	-0.239	-0.019
12.500	108.475	79.995	19.995	100.650	20.042	-0.411	-0.005
13.000	108.443	79.996	19.996	100.656	20.043	-0.456	-0.018
13.500	108.475	79.996	19.996	100.658	20.039	-0.218	-0.018
14.000	108.471	79.997	19.998	100.658	20.040	-0.287	0.014
14.500	108.468	79.995	19.997	100.658	20.039	-0.244	0.010
15.000	108.481	79.995	19.997	100.659	20.037	-0.066	0.002
15.500	108.472	79.995	19.997	100.660	20.037	-0.099	0.007
16.000	108.452	79.996	19.996	100.662	20.036	-0.003	-0.012
16.500	108.475	79.996	19.996	100.665	20.035	0.045	-0.013
17.000	108.479	79.996	19.995	100.671	20.036	-0.022	0.015
17.500	108.462	79.995	19.997	100.677	20.033	0.194	0.007
18.000	108.485	79.995	19.996	100.684	20.032	0.213	-0.004
18.501	108.472	79.996	19.996	100.693	20.030	0.353	0.008
19.000	108.488	79.994	19.994	100.706	20.034	0.121	0.006
19.500	108.520	79.996	19.996	100.715	20.031	0.299	0.026
20.000	108.497	79.996	19.995	100.726	20.027	0.538	0.029
20.500	108.544	79.993	19.996	100.740	20.026	0.611	0.016
21.000	108.566	79.995	19.995	100.752	20.025	0.687	0.046
21.500	108.549	79.996	19.996	100.761	20.025	0.647	0.037
22.000	108.581	79.997	19.996	100.769	20.022	0.832	0.010
22.500	108.602	79.996	19.994	100.777	20.021	0.936	0.034
23.000	108.570	79.996	19.995	100.780	20.020	1.010	0.021
23.500	108.649	79.994	19.996	100.788	20.021	0.941	0.018
24.000	108.628	79.994	19.995	100.797	20.021	0.955	0.053
24.500	108.684	79.995	19.996	100.805	20.023	0.810	0.046
25.000	108.729	79.996	19.996	100.811	20.019	1.052	0.068
25.500	108.780	79.996	19.997	100.818	20.018	1.095	0.099
26.000	108.816	79.996	19.996	100.819	20.017	1.185	0.092
26.500	108.879	79.996	19.995	100.820	20.018	1.121	0.092
27.000	108.863	79.997	19.995	100.821	20.015	1.317	0.073
27.500	108.900	79.996	19.996	100.825	20.015	1.306	0.035
28.000	108.986	79.995	19.996	100.826	20.014	1.365	0.072
28.500	108.991	79.998	19.995	100.826	20.013	1.445	0.107
29.000	109.081	79.995	19.994	100.826	20.011	1.561	0.093
29.500	109.108	79.997	19.995	100.829	20.009	1.661	0.106
30.000	109.161	79.997	19.995	100.835	20.010	1.619	0.099
30.500	109.179	79.997	19.996	100.839	20.008	1.754	0.076
31.000	109.251	79.997	19.996	100.845	20.007	1.789	0.081
31.500	109.325	79.995	19.995	100.850	20.005	1.950	0.118
32.000	109.351	79.996	19.995	100.852	20.009	1.690	0.123
32.500	109.419	79.996	19.995	100.848	20.007	1.831	0.097
33.000	109.490	79.994	19.995	100.851	20.004	1.993	0.116
33.500	109.590	79.996	19.995	100.851	20.006	1.865	0.155
34.000	109.642	79.997	19.995	100.852	20.006	1.858	0.162
34.500	109.672	79.995	19.996	100.853	20.007	1.841	0.117
35.000	109.772	79.996	19.995	100.857	20.004	2.009	0.105
35.500	109.879	79.996	19.996	100.857	20.008	1.723	0.168
36.000	109.907	79.996	19.995	100.856	20.004	2.037	0.171
36.501	109.970	79.995	19.996	100.856	20.004	2.019	0.113
37.001	110.080	79.995	19.995	100.854	20.007	1.832	0.132
37.501	110.155	79.997	19.995	100.854	20.007	1.813	0.179
38.000	110.201	79.996	19.995	100.854	20.006	1.883	0.153
38.500	110.303	79.995	19.995	100.853	20.004	2.035	0.134
39.000	110.412	79.996	19.995	100.852	20.005	1.912	0.179
39.501	110.468	79.996	19.996	100.854	20.003	2.050	0.188
40.001	110.595	79.995	19.995	100.853	20.005	1.948	0.174
40.500	110.632	79.996	19.995	100.853	20.003	2.073	0.173
41.000	110.764	79.995	19.996	100.857	20.001	2.206	0.166
41.500	110.851	79.995	19.995	100.856	20.002	2.142	0.194
42.000	110.896	79.995	19.995	100.856	20.000	2.281	0.176
42.500	110.996	79.995	19.995	100.857	20.000	2.255	0.138
43.000	111.113	79.994	19.995	100.858	20.000	2.239	0.181
43.501	111.174	79.995	19.994	100.859	20.000	2.277	0.198
44.001	111.289	79.994	19.994	100.861	19.999	2.324	0.177
44.500	111.360	79.992	19.996	100.863	20.000	2.282	0.181
45.001	111.486	79.994	19.995	100.866	19.999	2.340	0.191
45.501	111.583	79.995	19.995	100.867	20.000	2.250	0.210
46.000	111.681	79.995	19.995	100.867	20.004	2.016	0.209
46.500	111.821	79.995	19.994	100.867	20.000	2.291	0.216
47.000	111.921	79.995	19.995	100.867	20.000	2.265	0.239
47.500	112.029	79.996	19.995	100.866	20.001	2.174	0.224
48.000	112.102	79.995	19.994	100.866	20.000	2.262	0.195
48.500	112.240	79.995	19.994	100.867	19.999	2.298	0.196
49.000	112.351	79.996	19.995	100.867	19.998	2.411	0.230
49.500	112.448	79.994	19.995	100.866	19.999	2.330	0.228
50.000	112.578	79.996	19.995	100.866	20.000	2.260	0.218
50.500	112.693	79.996	19.994	100.866	20.000	2.283	0.236
51.000	112.847	79.995	19.996	100.867	19.998	2.366	0.257
51.501	112.956	79.997	19.996	100.872	19.999	2.338	0.266
52.001	113.091	79.995	19.995	100.875	19.998	2.418	0.254
52.500	113.186	79.997	19.995	100.877	19.996	2.537	0.237
53.000	113.300	79.997	19.995	100.879	20.000	2.269	0.219
53.500	113.436	79.996	19.996	100.883	20.002	2.127	0.229
54.000	113.552	79.996	19.995	100.882	19.998	2.376	0.251
54.500	113.675	79.997	19.995	100.878	20.000	2.271	0.246
55.000	113.804	79.996	19.994	100.877	20.001	2.217	0.246
55.500	113.912	79.997	19.995	100.876	19.998	2.392	0.244
56.000	114.049	79.998	19.994	100.874	19.999	2.349	0.241
56.500	114.209	79.996	19.995	100.871	20.000	2.262	0.271
57.000	114.302	79.997	19.996	100.873	20.008	1.748	0.275
57.500	114.434	79.997	19.995	100.877	20.002	2.164	0.239
58.000	114.621	79.997	19.996	100.880	19.995	2.584	0.272
58.500	114.740	79.998	19.995	100.883	20.006	1.897	0.313
59.000	114.867	79.998	19.994	100.887	19.997	2.451	0.276
59.500	115.003	79.999	19.995	100.892	20.009	1.694	0.254
60.000	115.179	79.999	19.995	100.895	20.009	1.707	0.287
60.500	115.297	79.998	19.995	100.896	19.996	2.491	0.303
61.000	115.427	79.998	19.994	100.896	19.991	2.813	0.272
61.500	115.616	79.998	19.995	100.895	19.993	2.688	0.284
62.000	115.746	79.997	19.995	100.893	19.993	2.707	0.319
62.500	115.896	79.998	19.995	100.893	19.994	2.659	0.300
63.000	116.058	79.998	19.995	100.893	19.996	2.491	0.296
63.500	116.203	79.998	19.995	100.893	19.991	2.839	0.309
64.000	116.353	79.998	19.995	100.894	19.998	2.380	0.301
64.500	116.518	79.997	19.995	100.895	19.999	2.304	0.305
65.000	116.642	79.997	19.995	100.892	19.997	2.439	0.302
65.500	116.816	79.998	19.996	100.892	19.997	2.475	0.294
66.000	116.983	79.998	19.995	100.891	19.997	2.461	0.320
66.501	117.170	79.998	19.996	100.891	19.995	2.570	0.347
67.001	117.283	79.998	19.996	100.892	19.996	2.532	0.327
67.500	117.414	79.997	19.995	100.894	19.997	2.421	0.272
68.000	117.596	79.997	19.995	100.895	19.995	2.577	0.278
68.500	117.751	79.998	19.996	100.896	19.998	2.357	0.325
69.000	117.899	79.996	19.996	100.896	19.998	2.420	0.321
69.501	118.094	79.997	19.996	100.896	19.996	2.513	0.324
70.001	118.249	79.997	19.995	100.896	19.995	2.593	0.347
70.500	118.447	79.997	19.996	100.895	19.996	2.543	0.351
71.000	118.598	79.996	19.996	100.894	19.996	2.545	0.350
71.501	118.768	79.996	19.996	100.894	19.994	2.647	0.335
72.001	118.907	79.997	19.996	100.894	19.997	2.465	0.315
72.500	119.076	79.996	19.996	100.896	19.995	2.609	0.309
73.000	119.241	79.996	19.998	100.896	19.994	2.652	0.321
73.500	119.436	79.997	19.997	100.899	19.993	2.707	0.347
74.000	119.635	79.996	19.997	100.899	19.997	2.435	0.377
74.500	119.839	79.996	19.997	100.898	19.997	2.460	0.398
75.000	120.006	79.997	19.997	100.897	19.993	2.730	0.387
75.500	120.201	79.998	19.996	100.898	19.994	2.643	0.367
76.000	120.367	79.997	19.997	100.896	19.997	2.461	0.362
76.500	120.584	79.997	19.997	100.896	19.995	2.610	0.372
77.000	120.748	79.998	19.996	100.896	19.994	2.615	0.382
77.500	120.897	79.997	19.995	100.896	19.997	2.484	0.347
78.000	121.104	79.998	19.995	100.896	19.994	2.659	0.335
78.501	121.297	79.998	19.996	100.896	19.991	2.806	0.378
79.001	121.477	79.999	19.995	100.896	19.994	2.664	0.386
79.500	121.683	79.999	19.997	100.897	19.995	2.560	0.379
80.000	121.865	79.998	19.996	100.897	19.994	2.628	0.387
80.500	122.038	79.999	19.995	100.896	19.993	2.705	0.372
81.000	122.264	79.998	19.996	100.897	19.992	2.745	0.377
81.500	122.481	79.999	19.996	100.903	19.996	2.515	0.421
82.001	122.639	79.998	19.995	100.905	19.993	2.676	0.409
82.501	122.858	79.999	19.995	100.906	19.991	2.804	0.376
83.000	123.050	79.998	19.997	100.905	19.994	2.669	0.394
83.500	123.232	79.999	19.999	100.909	19.993	2.702	0.392
84.001	123.419	79.999	19.998	100.905	19.991	2.809	0.371
84.501	123.613	79.998	19.999	100.904	19.991	2.822	0.375
85.001	123.831	79.999	19.997	100.905	19.996	2.538	0.396
85.501	124.021	79.998	19.996	100.906	19.995	2.593	0.410
86.000	124.238	79.999	19.995	100.902	19.990	2.877	0.407
86.500	124.435	79.999	19.996	100.902	19.994	2.662	0.410
87.000	124.624	79.999	19.995	100.900	19.993	2.681	0.400
87.500	124.804	79.997	19.995	100.898	19.992	2.769	0.378
88.000	124.975	79.997	19.997	100.897	19.992	2.773	0.360
88.500	125.225	79.995	19.995	100.899	19.993	2.714	0.386
89.000	125.400	79.998	19.995	100.901	19.990	2.891	0.423
89.500	125.612	79.998	19.996	100.901	19.990	2.927	0.406
90.000	125.815	79.996	19.996	100.902	19.990	2.917	0.401
90.500	126.037	79.997	19.995	100.904	19.991	2.815	0.420
91.001	126.244	79.996	19.995	100.904	19.991	2.811	0.427
91.501	126.434	79.996	19.994	100.901	19.988	3.026	0.413
92.001	126.690	79.994	19.995	100.901	19.990	2.886	0.422
92.501	126.895	79.994	19.995	100.901	19.990	2.877	0.453
93.000	127.092	79.994	19.995	100.900	19.988	3.034	0.431
93.500	127.292	79.996	19.995	100.899	19.989	2.969	0.400
94.001	127.511	79.996	19.995	100.902	19.991	2.854	0.408
94.501	127.716	79.995	19.995	100.904	19.992	2.801	0.421
95.001	127.893	79.995	19.995	100.906	19.990	2.896	0.403
95.500	128.159	79.995	19.995	100.906	19.990	2.873	0.412
96.000	128.358	79.996	19.997	100.905	19.992	2.763	0.454
96.500	128.572	79.996	19.995	100.904	19.993	2.725	0.440
97.000	128.795	79.996	19.995	100.902	19.990	2.905	0.425
97.500	129.025	79.995	19.995	100.901	19.993	2.727	0.445
98.000	129.228	79.996	19.995	100.901	19.990	2.929	0.443
98.501	129.426	79.995	19.995	100.902	19.990	2.924	0.417
99.001	129.676	79.994	19.996	100.900	19.989	2.983	0.425
99.500	129.904	79.995	19.996	100.900	19.991	2.856	0.463
100.000	130.116	79.995	19.995	100.902	19.993	2.681	0.458
100.500	130.322	79.994	19.996	100.905	19.992	2.766	0.429
101.000	130.549	79.995	19.996	100.910	19.990	2.919	0.426
101.500	130.749	79.995	19.996	100.913	19.992	2.801	0.430
102.000	130.997	79.994	19.996	100.915	19.990	2.866	0.437
102.500	131.174	79.994	19.996	100.916	19.992	2.785	0.437
103.001	131.424	79.994	19.995	100.912	19.992	2.763	0.426
103.501	131.676	79.995	19.997	100.908	19.991	2.858	0.464
104.001	131.863	79.996	19.996	100.904	19.994	2.643	0.470
104.501	132.059	79.994	19.997	100.903	19.992	2.768	0.411
105.000	132.302	79.994	19.996	100.904	19.991	2.840	0.411
105.501	132.552	79.995	19.995	100.906	19.994	2.633	0.466
106.001	132.753	79.993	19.996	100.907	19.991	2.839	0.472
106.501	132.979	79.995	19.995	100.907	19.990	2.906	0.439
107.000	133.215	79.994	19.996	100.912	19.993	2.730	0.444
107.500	133.458	79.995	19.995	100.914	19.992	2.795	0.470
108.000	133.676	79.995	19.996	100.913	19.993	2.721	0.470
108.500	133.922	79.994	19.996	100.914	19.993	2.737	0.462
109.000	134.161	79.996	19.995	100.916	19.990	2.873	0.475
109.500	134.402	79.995	19.995	100.913	19.993	2.724	0.483
110.001	134.664	79.995	19.996	100.912	19.993	2.681	0.492
110.501	134.845	79.996	19.995	100.913	19.991	2.802	0.473
111.000	135.102	79.996	19.995	100.913	19.991	2.804	0.441
111.500	135.322	79.995	19.996	100.911	19.992	2.776	0.457
112.000	135.552	79.995	19.995	100.908	19.990	2.896	0.463
112.500	135.790	79.996	19.996	100.904	19.988	3.001	0.459
113.001	136.009	79.995	19.994	100.902	19.990	2.922	0.462
113.501	136.228	79.996	19.995	100.901	19.988	3.021	0.447
114.000	136.470	79.997	19.995	100.901	19.992	2.799	0.450
114.500	136.732	79.996	19.995	100.901	19.991	2.860	0.482
115.000	136.955	79.995	19.995	100.901	19.992	2.782	0.494
115.500	137.195	79.996	19.995	100.900	19.991	2.827	0.474
116.000	137.430	79.996	19.996	100.899	19.991	2.814	0.469
116.500	137.665	79.997	19.995	100.900	19.989	2.939	0.472
117.000	137.890	79.996	19.995	100.900	19.992	2.757	0.465
117.500	138.169	79.996	19.994	100.902	19.988	3.034	0.482
118.000	138.415	79.996	19.995	100.904	19.992	2.763	0.515
118.500	138.643	79.996	19.995	100.904	19.992	2.789	0.500
119.000	138.891	79.998	19.995	100.903	19.994	2.621	0.475
119.500	139.114	79.996	19.994	100.903	19.989	2.953	0.473
120.000	139.322	79.995	19.996	100.901	19.990	2.887	0.451
120.500	139.588	79.994	19.994	100.899	19.987	3.114	0.452
121.000	139.812	79.995	19.995	100.899	19.990	2.925	0.482
121.500	140.094	79.996	19.994	100.898	19.989	2.965	0.498
122.000	140.353	79.995	19.995	100.898	19.989	2.951	0.524
122.500	140.616	79.994	19.995	100.901	19.992	2.775	0.531
123.000	140.799	79.996	19.996	100.902	19.991	2.821	0.484
123.500	141.041	79.996	19.995	100.903	19.990	2.927	0.436
124.000	141.318	79.996	19.995	100.908	19.990	2.897	0.472
124.500	141.548	79.996	19.994	100.911	19.990	2.873	0.514
125.000	141.804	79.995	19.993	100.909	19.992	2.799	0.497
125.500	142.050	79.994	19.995	100.907	19.989	2.961	0.493
126.000	142.287	79.995	19.995	100.906	19.989	2.937	0.492
126.500	142.529	79.996	19.995	100.901	19.991	2.847	0.481
127.001	142.784	79.995	19.996	100.898	19.993	2.688	0.488
127.501	143.017	79.996	19.995	100.899	19.990	2.890	0.493
128.000	143.273	79.996	19.995	100.900	19.990	2.929	0.488
128.500	143.523	79.996	19.996	100.901	19.991	2.814	0.497
129.000	143.752	79.996	19.995	100.902	19.989	2.953	0.492
129.500	143.996	79.997	19.995	100.901	19.991	2.851	0.476
130.000	144.297	79.996	19.996	100.899	19.987	3.079	0.510
130.500	144.530	79.996	19.994	100.898	19.989	2.986	0.540
131.000	144.758	79.995	19.996	100.897	19.992	2.778	0.498
131.500	144.989	79.996	19.995	100.896	19.992	2.792	0.460
132.000	145.267	79.995	19.995	100.897	19.990	2.915	0.484
132.500	145.501	79.996	19.996	100.896	19.993	2.693	0.511
133.000	145.755	79.997	19.995	100.897	19.990	2.889	0.500
133.500	146.023	79.997	19.996	100.896	19.991	2.840	0.505
134.000	146.255	79.996	19.995	100.896	19.992	2.778	0.511
134.500	146.478	79.998	19.995	100.896	19.994	2.617	0.477
135.000	146.699	79.997	19.995	100.894	19.996	2.527	0.449
135.500	146.946	79.997	19.995	100.894	19.994	2.639	0.456
136.000	147.201	79.997	19.995	100.893	19.994	2.620	0.485
136.500	147.494	79.997	19.995	100.893	19.992	2.747	0.525
137.000	147.735	79.998	19.995	100.893	19.994	2.641	0.541
137.500	147.980	79.997	19.994	100.895	19.995	2.586	0.510
138.000	148.193	79.998	19.995	100.896	19.993	2.690	0.472
138.500	148.460	79.998	19.995	100.896	19.994	2.657	0.469
139.000	148.713	79.998	19.995	100.896	19.995	2.608	0.500
139.500	148.962	79.999	19.995	100.895	19.994	2.653	0.511
140.000	149.201	80.000	19.995	100.894	19.996	2.535	0.495
140.500	149.499	79.998	19.995	100.893	19.998	2.400	0.512
141.000	149.723	79.998	19.996	100.893	19.996	2.544	0.530
141.500	149.983	79.998	19.995	100.894	19.996	2.530	0.503
142.000	150.219	79.998	19.995	100.893	19.996	2.499	0.490
142.500	150.452	79.997	19.995	100.894	19.996	2.541	0.483
143.000	150.695	79.998	19.995	100.895	19.997	2.473	0.473
143.500	150.959	79.999	19.995	100.895	19.995	2.601	0.491
144.000	151.181	79.998	19.995	100.894	19.997	2.454	0.496
144.501	151.459	79.998	19.996	100.895	19.995	2.594	0.493
145.000	151.711	79.998	19.996	100.896	19.996	2.543	0.515
145.500	151.980	79.997	19.996	100.895	19.998	2.380	0.526
146.000	152.188	79.997	19.995	100.894	19.993	2.693	0.499
146.500	152.476	79.998	19.995	100.894	19.994	2.671	0.486
147.000	152.705	79.997	19.995	100.891	19.993	2.677	0.506
147.500	152.987	79.997	19.994	100.890	19.995	2.556	0.514
148.000	153.230	79.997	19.996	100.891	19.997	2.475	0.518
148.500	153.455	79.998	19.994	100.892	19.994	2.613	0.496
149.000	153.716	79.997	19.995	100.891	19.997	2.480	0.477
149.500	153.958	79.997	19.994	100.890	19.995	2.572	0.495
150.000	154.174	79.997	19.994	100.889	19.994	2.639	0.480
150.500	154.430	79.996	19.995	100.885	19.994	2.638	0.465
151.000	154.713	79.997	19.994	100.885	19.995	2.553	0.506
151.500	154.955	79.997	19.994	100.884	19.992	2.793	0.531
152.000	155.178	79.998	19.996	100.888	19.996	2.515	0.495
152.500	155.440	79.997	19.994	100.888	19.996	2.513	0.475
153.000	155.685	79.998	19.995	100.892	19.994	2.662	0.496
153.500	155.922	79.997	19.995	100.892	19.994	2.650	0.495
154.000	156.190	79.998	19.995	100.894	19.996	2.499	0.494
154.500	156.423	79.997	19.995	100.894	19.999	2.336	0.503
155.000	156.658	79.997	19.995	100.896	19.999	2.338	0.484
155.500	156.929	79.998	19.994	100.895	19.999	2.350	0.487
156.000	157.200	79.997	19.996	100.895	19.995	2.556	0.524
156.500	157.444	79.998	19.994	100.893	19.999	2.298	0.528
157.000	157.663	79.998	19.996	100.891	20.002	2.128	0.489
157.500	157.962	79.999	19.995	100.890	19.997	2.423	0.491
158.000	158.154	79.998	19.996	100.889	19.999	2.338	0.505
158.500	158.418	79.998	19.995	100.884	20.000	2.274	0.473
159.000	158.677	79.998	19.996	100.883	19.997	2.442	0.489
159.500	158.891	79.998	19.994	100.883	19.999	2.303	0.498
160.000	159.179	79.998	19.994	100.882	19.999	2.312	0.488
160.500	159.392	79.998	19.995	100.881	19.999	2.295	0.502
161.000	159.657	79.999	19.994	100.888	19.999	2.334	0.490
161.500	159.884	80.000	19.996	100.889	19.998	2.359	0.485
162.000	160.167	79.999	19.996	100.893	19.996	2.541	0.500
162.500	160.386	79.998	19.995	100.894	20.000	2.276	0.506
163.000	160.666	79.999	19.995	100.893	19.997	2.476	0.501
163.500	160.897	79.999	19.995	100.888	19.998	2.371	0.506
164.000	161.149	80.000	19.996	100.885	20.000	2.270	0.497
164.500	161.386	79.999	19.995	100.882	20.001	2.206	0.486
165.000	161.642	79.998	19.995	100.879	20.000	2.253	0.491
165.500	161.885	79.999	19.996	100.877	20.000	2.270	0.496
166.000	162.147	79.998	19.995	100.876	20.000	2.232	0.502
166.500	162.377	79.999	19.995	100.874	19.997	2.426	0.499
167.000	162.652	79.999	19.995	100.874	19.998	2.381	0.499
167.500	162.869	80.000	19.994	100.873	19.998	2.364	0.498
168.000	163.151	79.998	19.995	100.874	19.998	2.371	0.496
168.500	163.366	79.999	19.995	100.876	19.996	2.509	0.498
169.000	163.652	79.997	19.996	100.876	19.997	2.424	0.499
169.500	163.871	79.999	19.995	100.872	19.997	2.422	0.503
170.000	164.171	79.997	19.994	100.869	19.997	2.452	0.512
170.500	164.411	79.997	19.995	100.870	19.998	2.364	0.529
171.000	164.667	79.998	19.996	100.868	20.000	2.287	0.518
171.500	164.913	79.996	19.996	100.872	19.999	2.344	0.499
172.000	165.159	79.997	19.995	100.880	19.999	2.343	0.497
