Sample ID:	C:\MCC\MCC Cal\Test\Rebond_Foam_Carpet_Pad_MCC_30K_min_211102_R3.txt
Sample Weight (mg):	4.91
Heating Rate (C/s):	0.5
Combustor Temp (C):	900
N2 Flow Rate (cc/min):	80
O2 Flow Rate (cc/min):	20
Calibration File:	C:\MCC\MCC Cal\Coeff1 JN10440_30_210304.txt.txt
T Correction Coefficients:	0	1.024463	0
Time Shift (s):	14
*
Time (s)	Temperature (C)	N2 flow rate (cc/min)	O2 flow rate (cc/min)	Flow Rate (cc/min)	Oxygen (%)	HRR (W/g)	Heating rate (C/s)
-0.001	108.983	80.002	19.992	103.065	20.097	0.271	-0.024
0.499	108.986	80.004	19.995	103.065	20.098	0.216	-0.007
1.000	108.982	80.002	19.995	103.067	20.097	0.287	0.007
1.500	108.972	80.004	19.995	103.067	20.100	0.089	-0.008
2.000	109.001	80.002	19.995	103.067	20.098	0.237	0.002
2.500	108.942	80.002	19.995	103.068	20.098	0.253	-0.005
3.000	108.969	80.003	19.995	103.067	20.101	0.029	-0.031
3.500	108.962	80.003	19.996	103.065	20.101	0.036	-0.006
4.000	108.954	80.005	19.996	103.065	20.101	0.048	0.003
4.500	108.940	80.004	19.996	103.064	20.100	0.120	-0.019
5.000	108.911	80.004	19.995	103.063	20.102	-0.054	-0.033
5.500	108.958	80.003	19.995	103.065	20.099	0.143	-0.013
6.000	108.931	80.003	19.996	103.062	20.099	0.136	0.019
6.500	108.930	80.006	19.996	103.057	20.101	-0.004	-0.004
7.000	108.941	80.004	19.997	103.055	20.098	0.216	-0.009
7.500	108.939	80.004	19.995	103.054	20.098	0.243	0.010
8.000	108.944	80.003	19.995	103.053	20.100	0.123	0.006
8.500	108.926	80.004	19.995	103.055	20.101	0.032	-0.005
9.000	108.916	80.003	19.995	103.055	20.099	0.139	-0.021
9.500	108.891	80.002	19.995	103.054	20.099	0.154	-0.031
10.000	108.902	80.004	19.996	103.054	20.104	-0.168	-0.024
10.500	108.902	80.004	19.996	103.054	20.098	0.230	-0.002
11.000	108.879	80.003	19.996	103.056	20.099	0.164	-0.006
11.500	108.895	80.003	19.995	103.061	20.099	0.132	-0.015
12.000	108.899	80.003	19.996	103.065	20.100	0.109	0.006
12.501	108.918	80.003	19.996	103.068	20.101	0.043	0.022
13.000	108.917	80.002	19.996	103.070	20.099	0.170	0.021
13.500	108.910	80.004	19.995	103.076	20.097	0.257	0.005
14.000	108.933	80.004	19.995	103.083	20.097	0.298	0.004
14.500	108.943	80.004	19.995	103.089	20.095	0.434	0.025
15.000	108.941	80.003	19.996	103.094	20.092	0.609	0.021
15.500	108.951	80.004	19.996	103.097	20.093	0.525	0.008
16.000	108.944	80.005	19.994	103.097	20.092	0.638	0.005
16.500	108.952	80.003	19.995	103.097	20.089	0.806	0.002
17.000	108.955	80.004	19.995	103.097	20.091	0.711	0.006
17.500	108.999	80.002	19.996	103.099	20.091	0.661	0.029
18.000	108.966	80.004	19.996	103.107	20.090	0.718	0.029
18.500	109.009	80.003	19.996	103.118	20.084	1.156	0.011
19.000	108.985	80.004	19.996	103.133	20.082	1.300	0.015
19.500	108.984	80.003	19.995	103.149	20.080	1.377	-0.003
20.000	109.017	80.003	19.995	103.163	20.082	1.279	0.004
20.500	108.986	80.003	19.995	103.175	20.080	1.377	0.017
21.000	109.012	80.004	19.996	103.188	20.080	1.420	-0.002
21.500	109.030	80.004	19.995	103.197	20.077	1.576	0.019
22.000	109.064	80.004	19.995	103.204	20.078	1.510	0.048
22.500	109.070	80.003	19.995	103.212	20.072	1.933	0.046
23.000	109.122	80.004	19.994	103.220	20.073	1.856	0.049
23.500	109.147	80.002	19.995	103.226	20.072	1.912	0.067
24.000	109.217	80.004	19.996	103.230	20.072	1.958	0.086
24.500	109.210	80.003	19.995	103.232	20.068	2.221	0.079
25.000	109.226	80.004	19.996	103.231	20.068	2.201	0.036
25.500	109.283	80.003	19.995	103.231	20.067	2.267	0.041
26.000	109.336	80.003	19.996	103.226	20.067	2.280	0.092
26.500	109.357	80.003	19.995	103.222	20.066	2.312	0.092
27.000	109.402	80.003	19.995	103.221	20.066	2.335	0.070
27.500	109.423	80.004	19.995	103.222	20.067	2.271	0.066
28.000	109.500	80.002	19.995	103.222	20.062	2.603	0.082
28.500	109.533	80.002	19.996	103.221	20.066	2.306	0.104
29.000	109.591	80.005	19.995	103.221	20.066	2.326	0.101
29.500	109.601	80.002	19.996	103.222	20.066	2.308	0.079
30.000	109.662	80.003	19.996	103.226	20.065	2.410	0.069
30.500	109.711	80.002	19.995	103.228	20.066	2.308	0.091
31.000	109.766	80.004	19.995	103.235	20.065	2.373	0.107
31.500	109.821	80.003	19.997	103.240	20.065	2.419	0.107
32.000	109.896	80.003	19.997	103.243	20.066	2.328	0.120
32.499	109.935	80.004	19.995	103.247	20.065	2.398	0.122
32.999	109.978	80.003	19.996	103.253	20.064	2.430	0.098
33.499	110.029	80.003	19.995	103.253	20.063	2.515	0.088
33.999	110.081	80.003	19.995	103.256	20.063	2.525	0.099
34.499	110.173	80.004	19.996	103.258	20.063	2.495	0.124
34.999	110.265	80.003	19.997	103.258	20.064	2.454	0.164
35.499	110.295	80.002	19.996	103.252	20.061	2.655	0.152
35.999	110.395	80.004	19.996	103.248	20.061	2.630	0.126
36.499	110.466	80.003	19.995	103.249	20.061	2.623	0.151
36.999	110.536	80.005	19.996	103.253	20.063	2.530	0.156
37.499	110.611	80.004	19.996	103.252	20.063	2.499	0.143
37.999	110.699	80.005	19.997	103.251	20.063	2.513	0.154
38.499	110.740	80.003	19.997	103.251	20.063	2.504	0.146
38.999	110.825	80.004	19.996	103.244	20.061	2.634	0.127
39.499	110.909	80.004	19.996	103.241	20.060	2.746	0.147
39.999	110.958	80.004	19.995	103.242	20.062	2.591	0.151
40.499	111.029	80.004	19.996	103.247	20.059	2.761	0.127
40.999	111.137	80.004	19.995	103.251	20.061	2.629	0.149
41.499	111.243	80.004	19.995	103.256	20.062	2.591	0.196
41.999	111.342	80.005	19.996	103.257	20.060	2.695	0.210
42.499	111.413	80.004	19.995	103.262	20.063	2.525	0.188
42.999	111.515	80.004	19.995	103.271	20.058	2.868	0.172
43.499	111.643	80.005	19.997	103.257	20.061	2.648	0.202
44.000	111.741	80.004	19.996	103.241	20.062	2.614	0.228
44.501	111.804	80.004	19.996	103.227	20.062	2.618	0.193
45.000	111.889	80.004	19.995	103.215	20.059	2.780	0.154
45.500	112.033	80.005	19.995	103.202	20.061	2.679	0.188
46.000	112.137	80.005	19.995	103.221	20.059	2.770	0.239
46.500	112.183	80.003	19.995	103.272	20.060	2.709	0.199
47.000	112.305	80.003	19.995	103.303	20.061	2.652	0.159
47.499	112.430	80.003	19.995	103.317	20.062	2.615	0.207
47.999	112.549	80.004	19.995	103.325	20.061	2.634	0.245
48.499	112.627	80.004	19.994	103.320	20.061	2.675	0.220
49.000	112.705	80.005	19.994	103.287	20.061	2.659	0.177
49.500	112.847	80.005	19.995	103.268	20.061	2.650	0.188
49.999	112.965	80.004	19.996	103.264	20.060	2.686	0.240
50.499	113.069	80.005	19.995	103.263	20.057	2.913	0.241
50.999	113.167	80.005	19.994	103.264	20.058	2.875	0.212
51.499	113.290	80.005	19.994	103.264	20.058	2.858	0.211
51.999	113.402	80.004	19.994	103.265	20.057	2.901	0.228
52.499	113.541	80.005	19.994	103.263	20.059	2.766	0.243
52.999	113.657	80.004	19.995	103.263	20.056	2.970	0.253
53.499	113.771	80.004	19.995	103.264	20.058	2.859	0.243
53.999	113.869	80.004	19.995	103.263	20.060	2.709	0.221
54.499	113.972	80.006	19.995	103.262	20.058	2.870	0.207
54.999	114.146	80.003	19.994	103.263	20.057	2.886	0.239
55.499	114.244	80.004	19.994	103.264	20.056	2.958	0.274
55.999	114.417	80.004	19.995	103.265	20.057	2.886	0.271
56.499	114.556	80.005	19.995	103.268	20.056	2.961	0.292
56.999	114.631	80.005	19.995	103.272	20.054	3.083	0.263
57.499	114.784	80.005	19.993	103.275	20.059	2.784	0.221
57.999	114.881	80.004	19.996	103.276	20.056	3.002	0.239
58.500	115.049	80.005	19.993	103.279	20.054	3.136	0.258
59.000	115.153	80.005	19.993	103.278	20.057	2.936	0.269
59.500	115.284	80.004	19.994	103.275	20.057	2.919	0.254
60.000	115.427	80.005	19.994	103.273	20.055	3.013	0.254
60.500	115.566	80.005	19.995	103.274	20.051	3.282	0.278
61.000	115.682	80.006	19.994	103.272	20.056	2.990	0.268
61.499	115.809	80.004	19.995	103.273	20.052	3.267	0.249
61.999	115.971	80.005	19.994	103.274	20.059	2.804	0.267
62.499	116.106	80.006	19.995	103.278	20.057	2.924	0.293
62.999	116.248	80.006	19.994	103.278	20.055	3.026	0.287
63.499	116.375	80.005	19.995	103.277	20.056	2.994	0.273
63.999	116.511	80.006	19.995	103.276	20.053	3.153	0.266
64.499	116.661	80.005	19.995	103.279	20.051	3.294	0.274
64.999	116.797	80.005	19.995	103.274	20.052	3.223	0.285
65.499	116.943	80.005	19.994	103.273	20.054	3.091	0.284
65.999	117.099	80.007	19.993	103.276	20.055	3.048	0.292
66.499	117.239	80.006	19.994	103.275	20.055	3.024	0.299
66.999	117.367	80.006	19.995	103.274	20.051	3.303	0.282
67.500	117.511	80.004	19.994	103.272	20.053	3.189	0.270
68.000	117.701	80.006	19.994	103.272	20.055	3.071	0.304
68.499	117.849	80.006	19.995	103.275	20.051	3.314	0.336
68.999	118.011	80.006	19.995	103.278	20.053	3.182	0.324
69.499	118.135	80.006	19.995	103.279	20.052	3.262	0.298
69.999	118.279	80.006	19.995	103.283	20.055	3.033	0.277
70.499	118.428	80.005	19.994	103.287	20.053	3.149	0.280
70.999	118.576	80.006	19.994	103.287	20.056	2.962	0.295
71.499	118.701	80.006	19.994	103.289	20.052	3.260	0.286
71.999	118.869	80.005	19.994	103.292	20.054	3.135	0.283
72.499	119.007	80.005	19.994	103.292	20.053	3.157	0.299
73.000	119.178	80.006	19.994	103.288	20.049	3.432	0.307
73.500	119.366	80.004	19.995	103.285	20.050	3.350	0.334
74.000	119.513	80.005	19.994	103.286	20.053	3.158	0.347
74.500	119.648	80.003	19.994	103.286	20.050	3.360	0.309
74.999	119.821	80.004	19.995	103.289	20.050	3.351	0.296
75.499	119.996	80.004	19.995	103.295	20.054	3.116	0.328
75.999	120.167	80.003	19.995	103.297	20.050	3.348	0.347
76.499	120.306	80.003	19.995	103.297	20.052	3.212	0.327
76.999	120.469	80.004	19.994	103.297	20.052	3.248	0.306
77.499	120.624	80.004	19.994	103.296	20.050	3.359	0.310
77.999	120.787	80.004	19.994	103.295	20.051	3.339	0.319
78.499	120.987	80.004	19.995	103.295	20.053	3.187	0.341
78.999	121.147	80.004	19.993	103.295	20.053	3.171	0.361
79.499	121.278	80.005	19.994	103.295	20.051	3.276	0.325
79.999	121.457	80.004	19.995	103.297	20.048	3.493	0.300
80.499	121.679	80.003	19.995	103.297	20.049	3.439	0.356
80.999	121.815	80.004	19.994	103.297	20.051	3.341	0.380
81.499	122.030	80.004	19.995	103.297	20.050	3.350	0.355
81.999	122.192	80.004	19.995	103.297	20.052	3.244	0.364
82.499	122.344	80.004	19.994	103.296	20.053	3.189	0.345
82.999	122.550	80.002	19.995	103.297	20.050	3.385	0.336
83.499	122.707	80.004	19.994	103.298	20.052	3.212	0.361
83.999	122.910	80.004	19.995	103.298	20.051	3.335	0.361
84.499	123.105	80.004	19.994	103.297	20.056	3.008	0.379
84.999	123.268	80.004	19.994	103.298	20.050	3.343	0.378
85.499	123.439	80.003	19.994	103.297	20.053	3.153	0.346
86.000	123.579	80.006	19.994	103.297	20.052	3.216	0.322
86.500	123.795	80.004	19.994	103.296	20.054	3.144	0.333
86.999	123.978	80.005	19.995	103.298	20.053	3.194	0.378
87.499	124.175	80.004	19.994	103.297	20.055	3.067	0.390
87.999	124.325	80.003	19.994	103.298	20.052	3.235	0.363
88.499	124.478	80.004	19.995	103.299	20.053	3.200	0.325
88.999	124.722	80.004	19.994	103.299	20.052	3.241	0.350
89.499	124.905	80.003	19.994	103.297	20.053	3.201	0.412
90.000	125.083	80.004	19.995	103.297	20.053	3.173	0.394
90.500	125.303	80.005	19.995	103.297	20.050	3.368	0.379
90.999	125.466	80.004	19.994	103.295	20.054	3.121	0.391
91.499	125.653	80.005	19.994	103.294	20.051	3.301	0.367
91.999	125.800	80.004	19.995	103.294	20.050	3.376	0.342
92.500	126.021	80.004	19.995	103.294	20.053	3.164	0.351
93.001	126.216	80.003	19.993	103.293	20.051	3.296	0.392
93.500	126.415	80.004	19.995	103.295	20.052	3.248	0.405
93.999	126.594	80.005	19.995	103.295	20.048	3.502	0.386
94.499	126.767	80.003	19.993	103.297	20.050	3.382	0.365
94.999	126.938	80.004	19.995	103.299	20.049	3.414	0.349
95.499	127.150	80.004	19.995	103.299	20.052	3.234	0.364
95.999	127.295	80.003	19.995	103.298	20.049	3.472	0.370
96.499	127.521	80.005	19.994	103.298	20.051	3.307	0.364
96.999	127.684	80.004	19.994	103.298	20.051	3.282	0.380
97.499	127.888	80.004	19.993	103.296	20.050	3.347	0.378
97.999	128.091	80.003	19.996	103.296	20.047	3.586	0.387
98.499	128.295	80.004	19.995	103.296	20.049	3.415	0.407
98.999	128.489	80.004	19.994	103.297	20.047	3.561	0.403
99.499	128.692	80.004	19.995	103.297	20.046	3.659	0.398
99.999	128.891	80.003	19.995	103.297	20.046	3.623	0.399
100.499	129.079	80.004	19.995	103.297	20.050	3.386	0.395
100.999	129.299	80.004	19.996	103.297	20.048	3.516	0.397
101.499	129.482	80.004	19.995	103.297	20.048	3.534	0.405
101.999	129.695	80.003	19.995	103.297	20.046	3.656	0.400
102.500	129.900	80.003	19.994	103.296	20.046	3.665	0.407
103.000	130.059	80.002	19.996	103.297	20.046	3.647	0.391
103.499	130.281	80.003	19.995	103.297	20.046	3.654	0.372
103.999	130.472	80.003	19.996	103.297	20.046	3.648	0.397
104.499	130.643	80.003	19.995	103.297	20.048	3.518	0.388
104.999	130.888	80.003	19.995	103.297	20.047	3.556	0.389
105.499	131.085	80.004	19.995	103.298	20.047	3.559	0.429
106.000	131.302	80.003	19.996	103.299	20.045	3.679	0.429
106.500	131.484	80.001	19.997	103.302	20.046	3.613	0.407
106.999	131.725	80.004	19.995	103.307	20.047	3.600	0.411
107.499	131.872	80.003	19.996	103.310	20.045	3.709	0.405
107.999	132.069	80.003	19.995	103.316	20.045	3.704	0.366
108.499	132.302	80.003	19.994	103.317	20.046	3.666	0.387
108.999	132.499	80.004	19.996	103.316	20.048	3.538	0.430
109.499	132.703	80.003	19.996	103.313	20.045	3.718	0.415
109.999	132.910	80.002	19.995	103.312	20.043	3.840	0.406
110.499	133.059	80.002	19.995	103.306	20.044	3.754	0.384
110.999	133.281	80.003	19.996	103.304	20.046	3.645	0.363
111.499	133.526	80.003	19.994	103.303	20.045	3.688	0.419
112.000	133.738	80.003	19.995	103.304	20.046	3.668	0.462
112.500	133.915	80.002	19.995	103.307	20.045	3.715	0.423
112.999	134.150	80.003	19.995	103.307	20.043	3.817	0.400
113.499	134.342	80.001	19.995	103.307	20.046	3.609	0.419
113.999	134.511	80.004	19.995	103.307	20.043	3.863	0.394
114.499	134.793	80.003	19.995	103.307	20.048	3.516	0.406
114.999	134.982	80.004	19.994	103.304	20.045	3.735	0.461
115.499	135.207	80.004	19.996	103.307	20.043	3.824	0.443
115.999	135.385	80.003	19.995	103.309	20.046	3.619	0.409
116.499	135.602	80.003	19.996	103.310	20.047	3.595	0.399
117.000	135.833	80.003	19.995	103.309	20.045	3.713	0.422
117.500	136.040	80.004	19.995	103.308	20.045	3.706	0.443
117.999	136.255	80.004	19.994	103.306	20.042	3.922	0.430
118.499	136.475	80.004	19.995	103.304	20.045	3.718	0.428
118.999	136.718	80.004	19.996	103.303	20.049	3.456	0.449
119.499	136.884	80.004	19.995	103.303	20.046	3.620	0.436
119.999	137.110	80.004	19.995	103.303	20.045	3.704	0.400
120.499	137.370	80.003	19.995	103.301	20.044	3.760	0.439
121.000	137.601	80.006	19.995	103.303	20.044	3.744	0.489
121.500	137.794	80.005	19.995	103.305	20.043	3.860	0.457
121.999	138.007	80.004	19.995	103.305	20.044	3.801	0.415
122.499	138.214	80.004	19.995	103.305	20.039	4.087	0.413
122.999	138.493	80.006	19.995	103.307	20.041	3.979	0.453
123.500	138.675	80.005	19.995	103.306	20.042	3.908	0.473
124.000	138.884	80.006	19.996	103.308	20.042	3.908	0.426
124.499	139.130	80.005	19.994	103.310	20.041	3.963	0.424
124.999	139.318	80.005	19.995	103.310	20.040	4.052	0.444
125.499	139.543	80.005	19.996	103.309	20.044	3.797	0.423
125.999	139.796	80.004	19.995	103.312	20.041	3.990	0.446
126.499	140.025	80.004	19.995	103.317	20.040	4.019	0.480
126.999	140.252	80.004	19.996	103.321	20.043	3.833	0.469
127.499	140.475	80.003	19.995	103.323	20.044	3.784	0.453
128.000	140.689	80.003	19.995	103.324	20.043	3.827	0.443
128.500	140.920	80.002	19.995	103.321	20.043	3.817	0.441
129.000	141.152	80.004	19.995	103.317	20.042	3.879	0.455
129.500	141.360	80.005	19.995	103.312	20.042	3.902	0.452
130.000	141.636	80.003	19.996	103.311	20.042	3.929	0.462
130.500	141.835	80.004	19.996	103.310	20.041	3.936	0.479
131.000	142.058	80.004	19.995	103.311	20.040	4.018	0.448
131.500	142.300	80.004	19.996	103.314	20.044	3.743	0.443
132.000	142.542	80.003	19.995	103.317	20.042	3.931	0.475
132.500	142.767	80.003	19.996	103.319	20.044	3.752	0.475
133.000	143.044	80.003	19.995	103.318	20.039	4.097	0.484
133.500	143.233	80.003	19.997	103.317	20.040	4.022	0.484
134.000	143.495	80.003	19.996	103.312	20.038	4.158	0.459
134.500	143.678	80.003	19.996	103.307	20.040	4.036	0.448
135.000	143.956	80.004	19.996	103.304	20.039	4.129	0.453
135.500	144.155	80.003	19.996	103.303	20.041	3.974	0.469
136.000	144.420	80.004	19.996	103.301	20.043	3.831	0.470
136.500	144.655	80.004	19.995	103.302	20.042	3.886	0.482
137.000	144.825	80.004	19.996	103.308	20.041	3.983	0.452
137.500	145.080	80.004	19.995	103.310	20.040	4.022	0.415
138.000	145.319	80.004	19.995	103.311	20.039	4.085	0.460
138.500	145.603	80.005	19.996	103.309	20.041	3.938	0.509
139.000	145.855	80.004	19.995	103.308	20.041	3.934	0.529
139.500	146.071	80.005	19.996	103.305	20.041	3.972	0.502
140.000	146.302	80.005	19.995	103.303	20.042	3.919	0.457
140.500	146.490	80.004	19.995	103.304	20.041	3.969	0.433
141.000	146.770	80.006	19.995	103.305	20.041	3.972	0.444
141.500	146.999	80.004	19.995	103.303	20.041	3.997	0.489
142.000	147.232	80.005	19.995	103.301	20.043	3.824	0.485
142.500	147.485	80.006	19.995	103.304	20.041	3.986	0.473
143.000	147.687	80.005	19.995	103.306	20.037	4.204	0.470
143.500	147.950	80.006	19.994	103.310	20.038	4.143	0.460
144.000	148.175	80.006	19.994	103.313	20.040	4.029	0.477
144.500	148.425	80.005	19.994	103.313	20.039	4.106	0.481
145.000	148.691	80.005	19.994	103.309	20.040	4.007	0.495
145.500	148.910	80.006	19.995	103.306	20.039	4.087	0.501
146.000	149.207	80.007	19.993	103.301	20.038	4.140	0.501
146.500	149.410	80.006	19.994	103.300	20.039	4.101	0.508
147.000	149.624	80.005	19.995	103.303	20.039	4.098	0.459
147.500	149.857	80.006	19.995	103.303	20.041	3.969	0.432
148.000	150.113	80.006	19.994	103.303	20.040	4.062	0.468
148.500	150.365	80.007	19.994	103.303	20.038	4.181	0.498
149.000	150.588	80.006	19.994	103.302	20.040	4.045	0.491
149.500	150.833	80.007	19.994	103.298	20.039	4.090	0.472
150.000	151.084	80.006	19.993	103.302	20.036	4.261	0.482
150.500	151.304	80.006	19.994	103.306	20.035	4.381	0.484
151.000	151.591	80.005	19.994	103.309	20.037	4.197	0.489
151.500	151.804	80.006	19.994	103.309	20.036	4.313	0.503
152.000	152.055	80.006	19.993	103.317	20.039	4.115	0.482
152.500	152.342	80.005	19.995	103.302	20.036	4.324	0.501
153.000	152.556	80.006	19.995	103.275	20.040	4.054	0.520
153.500	152.784	80.005	19.994	103.258	20.039	4.115	0.472
154.000	153.055	80.005	19.994	103.250	20.041	3.983	0.471
154.500	153.274	80.005	19.995	103.239	20.039	4.120	0.495
155.000	153.527	80.004	19.994	103.257	20.040	4.008	0.481
155.500	153.742	80.007	19.994	103.311	20.039	4.113	0.469
156.000	153.989	80.004	19.994	103.341	20.041	3.954	0.465
156.500	154.224	80.005	19.996	103.354	20.039	4.101	0.473
157.000	154.511	80.004	19.995	103.359	20.038	4.186	0.502
157.500	154.738	80.005	19.994	103.358	20.033	4.474	0.517
158.000	154.986	80.004	19.994	103.327	20.038	4.194	0.494
158.500	155.251	80.004	19.995	103.313	20.036	4.320	0.494
159.000	155.479	80.005	19.994	103.308	20.036	4.286	0.503
159.500	155.704	80.003	19.994	103.306	20.036	4.290	0.473
160.000	155.990	80.005	19.994	103.304	20.038	4.145	0.482
160.500	156.204	80.004	19.995	103.302	20.039	4.099	0.505
161.000	156.453	80.005	19.995	103.302	20.035	4.334	0.482
161.500	156.719	80.006	19.995	103.302	20.037	4.250	0.490
162.000	156.947	80.003	19.994	103.301	20.035	4.329	0.505
162.500	157.200	80.003	19.994	103.299	20.034	4.397	0.487
163.000	157.467	80.004	19.995	103.299	20.038	4.186	0.501
163.500	157.684	80.004	19.996	103.299	20.032	4.564	0.502
164.000	157.945	80.005	19.994	103.300	20.033	4.501	0.480
164.500	158.170	80.003	19.994	103.300	20.034	4.397	0.482
165.000	158.457	80.004	19.994	103.299	20.031	4.622	0.499
165.500	158.697	80.004	19.996	103.300	20.034	4.415	0.519
166.000	158.915	80.004	19.995	103.300	20.032	4.528	0.492
166.500	159.193	80.004	19.995	103.299	20.030	4.669	0.477
167.000	159.447	80.004	19.995	103.300	20.033	4.506	0.514
167.500	159.711	80.004	19.995	103.299	20.035	4.336	0.525
168.000	159.973	80.004	19.995	103.299	20.031	4.630	0.522
168.500	160.200	80.005	19.994	103.299	20.034	4.446	0.508
169.000	160.488	80.004	19.994	103.300	20.033	4.480	0.502
169.500	160.706	80.006	19.994	103.300	20.030	4.665	0.510
170.000	160.977	80.005	19.994	103.301	20.031	4.603	0.497
170.500	161.205	80.005	19.995	103.300	20.032	4.542	0.494
171.000	161.499	80.004	19.994	103.298	20.033	4.517	0.510
171.500	161.742	80.004	19.994	103.295	20.033	4.522	0.530
172.000	162.014	80.005	19.994	103.295	20.032	4.588	0.526
172.500	162.238	80.004	19.994	103.295	20.035	4.381	0.506
