Sample ID:	C:\MCC\MCC Cal\Test\Rebond_Foam_Carpet_Pad_MCC_30K_min_211101_R1.txt
Sample Weight (mg):	4.62
Heating Rate (C/s):	0.5
Combustor Temp (C):	900
N2 Flow Rate (cc/min):	80
O2 Flow Rate (cc/min):	20
Calibration File:	C:\MCC\MCC Cal\Coeff1 JN10440_30_210304.txt.txt
T Correction Coefficients:	0	1.024463	0
Time Shift (s):	14
*
Time (s)	Temperature (C)	N2 flow rate (cc/min)	O2 flow rate (cc/min)	Flow Rate (cc/min)	Oxygen (%)	HRR (W/g)	Heating rate (C/s)
0.000	107.080	80.000	19.996	102.958	20.401	0.202	0.001
0.500	107.071	80.000	19.995	102.954	20.402	0.132	0.003
1.000	107.057	80.000	19.994	102.955	20.399	0.376	-0.013
1.500	107.116	80.000	19.993	102.956	20.402	0.130	0.011
2.000	107.100	80.000	19.995	102.956	20.401	0.237	0.044
2.500	107.074	80.001	19.996	102.956	20.399	0.353	0.001
3.000	107.065	80.001	19.995	102.959	20.397	0.464	-0.038
3.500	107.070	80.001	19.993	102.959	20.401	0.178	-0.019
4.000	107.054	80.000	19.995	102.959	20.400	0.261	-0.007
4.500	107.098	80.001	19.996	102.959	20.400	0.244	0.009
5.000	107.125	80.000	19.997	102.960	20.403	0.044	0.049
5.500	107.095	79.999	19.996	102.961	20.403	0.086	0.033
6.000	107.101	80.000	19.991	102.961	20.401	0.181	-0.013
6.500	107.100	80.002	19.995	102.961	20.402	0.116	-0.009
7.000	107.104	80.001	19.994	102.959	20.399	0.336	0.004
7.500	107.095	80.001	19.995	102.958	20.403	0.032	-0.001
8.000	107.100	80.002	19.994	102.957	20.400	0.263	-0.005
8.500	107.099	80.001	19.996	102.957	20.399	0.368	0.000
9.000	107.086	80.000	19.994	102.956	20.402	0.139	-0.004
9.500	107.061	80.001	19.994	102.956	20.401	0.191	-0.026
10.000	107.060	80.001	19.995	102.955	20.402	0.128	-0.032
10.500	107.097	80.001	19.995	102.955	20.400	0.275	0.005
11.001	107.072	80.001	19.995	102.954	20.401	0.176	0.024
11.501	107.091	80.001	19.996	102.954	20.401	0.197	0.003
12.001	107.075	80.001	19.996	102.956	20.405	-0.052	-0.002
12.501	107.088	80.001	19.996	102.960	20.402	0.128	-0.000
13.000	107.042	80.002	19.996	102.962	20.399	0.325	-0.018
13.500	107.057	80.002	19.996	102.964	20.400	0.256	-0.032
14.000	107.083	80.000	19.995	102.965	20.404	0.008	0.005
14.500	107.044	80.002	19.996	102.966	20.401	0.183	0.014
15.000	107.043	80.001	19.994	102.968	20.400	0.241	-0.026
15.500	107.057	80.000	19.996	102.974	20.399	0.376	-0.014
16.000	107.037	80.001	19.996	102.980	20.399	0.311	0.003
16.500	107.044	80.001	19.993	102.987	20.401	0.202	-0.009
17.000	107.037	80.000	19.996	102.992	20.401	0.189	-0.007
17.500	107.029	80.003	19.996	102.991	20.397	0.449	-0.008
18.000	107.019	80.001	19.994	102.989	20.398	0.390	-0.016
18.500	107.057	80.001	19.995	102.989	20.400	0.298	0.005
19.000	107.053	80.002	19.994	102.989	20.395	0.629	0.031
19.500	107.053	80.001	19.997	102.992	20.394	0.673	0.015
20.000	107.075	80.000	19.995	102.994	20.396	0.556	0.009
20.500	107.095	80.001	19.996	102.996	20.393	0.738	0.032
21.000	107.073	80.001	19.996	103.001	20.396	0.564	0.020
21.500	107.079	80.000	19.996	103.004	20.393	0.784	-0.009
22.000	107.093	80.000	19.992	103.001	20.393	0.757	0.002
22.500	107.122	79.999	19.995	103.004	20.393	0.753	0.032
23.000	107.124	80.001	19.997	103.012	20.388	1.111	0.037
23.500	107.141	80.001	19.995	103.013	20.392	0.864	0.025
24.000	107.142	80.002	19.996	103.014	20.392	0.822	0.019
24.500	107.155	80.001	19.996	103.020	20.390	1.004	0.016
25.000	107.163	80.001	19.997	103.025	20.389	1.017	0.017
25.500	107.170	80.001	19.995	103.025	20.385	1.309	0.019
26.000	107.243	80.001	19.995	103.025	20.386	1.229	0.047
26.500	107.179	80.001	19.996	103.031	20.388	1.086	0.044
27.000	107.226	80.002	19.994	103.039	20.386	1.245	-0.004
27.500	107.263	80.001	19.994	103.047	20.384	1.392	0.033
28.000	107.242	80.001	19.996	103.049	20.385	1.296	0.050
28.500	107.252	80.001	19.995	103.056	20.384	1.409	0.002
29.000	107.280	80.001	19.996	103.063	20.385	1.298	0.014
29.500	107.316	80.001	19.995	103.071	20.380	1.679	0.051
30.000	107.382	80.003	19.995	103.079	20.382	1.526	0.083
30.500	107.366	80.003	19.996	103.092	20.381	1.606	0.076
31.000	107.373	80.000	19.996	103.104	20.379	1.715	0.021
31.500	107.394	80.000	19.993	103.114	20.378	1.835	0.010
32.000	107.437	80.000	19.995	103.121	20.378	1.820	0.046
32.501	107.465	80.001	19.994	103.128	20.377	1.858	0.067
33.001	107.524	80.001	19.995	103.133	20.378	1.811	0.079
33.500	107.528	80.002	19.996	103.132	20.374	2.103	0.075
34.000	107.561	80.002	19.995	103.132	20.374	2.054	0.050
34.500	107.594	80.002	19.996	103.130	20.378	1.790	0.052
35.000	107.666	80.001	19.998	103.123	20.375	2.012	0.086
35.500	107.738	80.003	19.993	103.119	20.376	1.935	0.124
36.000	107.754	80.000	19.994	103.119	20.375	2.037	0.116
36.500	107.828	80.001	19.994	103.121	20.376	1.968	0.089
37.000	107.882	80.001	19.996	103.125	20.370	2.337	0.109
37.500	107.882	80.002	19.995	103.132	20.376	1.955	0.091
38.000	107.961	80.003	19.996	103.140	20.377	1.884	0.066
38.500	108.037	80.002	19.995	103.147	20.372	2.219	0.117
39.001	108.069	80.002	19.996	103.150	20.375	2.046	0.131
39.501	108.112	80.001	19.995	103.150	20.371	2.278	0.091
40.001	108.195	80.002	19.995	103.148	20.371	2.278	0.100
40.500	108.256	80.003	19.994	103.146	20.369	2.404	0.135
41.000	108.321	80.004	19.995	103.145	20.372	2.241	0.135
41.500	108.390	80.002	19.993	103.142	20.373	2.155	0.130
42.000	108.440	80.003	19.993	103.137	20.373	2.153	0.127
42.500	108.505	80.004	19.995	103.139	20.371	2.297	0.117
43.000	108.578	80.003	19.995	103.141	20.371	2.284	0.126
43.500	108.685	80.003	19.996	103.143	20.373	2.135	0.159
44.000	108.708	80.004	19.994	103.148	20.367	2.588	0.155
44.500	108.791	80.001	19.996	103.153	20.369	2.460	0.118
45.000	108.841	80.003	19.994	103.154	20.369	2.456	0.119
45.500	108.938	80.002	19.995	103.154	20.369	2.422	0.140
46.000	109.017	80.002	19.995	103.154	20.370	2.374	0.162
46.500	109.064	80.002	19.995	103.153	20.368	2.508	0.151
47.000	109.199	80.003	19.996	103.158	20.370	2.389	0.154
47.500	109.288	80.003	19.996	103.165	20.370	2.383	0.203
48.000	109.317	80.002	19.994	103.168	20.369	2.412	0.171
48.501	109.399	80.004	19.995	103.172	20.366	2.627	0.114
49.001	109.513	80.003	19.995	103.175	20.368	2.508	0.154
49.500	109.616	80.002	19.995	103.175	20.368	2.495	0.207
50.000	109.689	80.003	19.994	103.170	20.366	2.613	0.197
50.500	109.788	80.002	19.994	103.170	20.364	2.795	0.174
51.001	109.856	80.002	19.995	103.167	20.368	2.533	0.170
51.501	109.929	80.002	19.993	103.167	20.365	2.722	0.154
52.000	110.070	80.002	19.995	103.164	20.369	2.445	0.177
52.500	110.163	80.002	19.995	103.166	20.364	2.751	0.223
53.000	110.218	80.002	19.994	103.169	20.366	2.653	0.191
53.500	110.325	80.001	19.994	103.175	20.362	2.934	0.155
54.000	110.429	80.002	19.995	103.180	20.362	2.892	0.186
54.500	110.546	80.002	19.995	103.186	20.362	2.908	0.216
55.000	110.643	80.001	19.995	103.187	20.362	2.898	0.218
55.500	110.767	80.003	19.995	103.186	20.361	2.982	0.218
56.000	110.838	80.002	19.994	103.185	20.361	2.992	0.208
56.500	110.947	80.002	19.995	103.184	20.362	2.893	0.187
57.000	111.040	80.003	19.994	103.183	20.359	3.126	0.191
57.500	111.172	80.002	19.996	103.183	20.359	3.155	0.213
58.000	111.254	80.001	19.996	103.186	20.359	3.163	0.219
58.500	111.348	80.002	19.995	103.191	20.360	3.059	0.196
59.000	111.466	80.002	19.992	103.196	20.355	3.377	0.194
59.500	111.602	80.001	19.995	103.199	20.361	2.977	0.232
60.000	111.746	80.001	19.995	103.202	20.357	3.249	0.267
60.500	111.884	80.002	19.994	103.200	20.359	3.166	0.281
61.000	112.018	80.003	19.994	103.196	20.360	3.032	0.277
61.501	112.109	80.001	19.994	103.192	20.360	3.036	0.249
62.001	112.227	80.002	19.994	103.193	20.359	3.107	0.217
62.501	112.321	80.003	19.994	103.193	20.360	3.054	0.210
63.000	112.442	80.003	19.994	103.195	20.359	3.152	0.214
63.500	112.629	80.003	19.995	103.196	20.363	2.857	0.261
64.000	112.725	80.003	19.994	103.197	20.362	2.914	0.295
64.500	112.829	80.003	19.994	103.195	20.358	3.196	0.241
65.001	112.984	80.004	19.994	103.193	20.357	3.274	0.230
65.501	113.090	80.005	19.993	103.193	20.357	3.243	0.261
66.001	113.236	80.004	19.996	103.194	20.358	3.205	0.257
66.501	113.372	80.004	19.994	103.196	20.358	3.191	0.266
67.001	113.509	80.004	19.994	103.200	20.359	3.146	0.278
67.500	113.643	80.004	19.994	103.208	20.360	3.061	0.272
68.000	113.750	80.005	19.994	103.213	20.362	2.895	0.255
68.501	113.867	80.004	19.994	103.212	20.359	3.161	0.233
69.001	114.035	80.003	19.996	103.212	20.360	3.079	0.255
69.500	114.185	80.005	19.993	103.211	20.360	3.029	0.302
70.000	114.336	80.004	19.995	103.210	20.360	3.085	0.309
70.500	114.461	80.005	19.995	103.208	20.363	2.857	0.289
71.000	114.606	80.004	19.994	103.208	20.362	2.909	0.273
71.500	114.761	80.004	19.995	103.209	20.360	3.096	0.285
72.000	114.886	80.005	19.993	103.209	20.359	3.100	0.290
72.500	115.041	80.004	19.995	103.209	20.359	3.148	0.279
73.000	115.183	80.003	19.993	103.214	20.357	3.253	0.288
73.500	115.317	80.004	19.993	103.220	20.360	3.035	0.287
74.000	115.504	80.003	19.993	103.223	20.355	3.399	0.299
74.500	115.646	80.004	19.994	103.226	20.359	3.119	0.325
75.000	115.802	80.003	19.995	103.227	20.360	3.066	0.313
75.501	115.942	80.002	19.997	103.226	20.357	3.278	0.297
76.001	116.096	80.002	19.993	103.222	20.359	3.110	0.295
76.501	116.283	80.002	19.995	103.220	20.360	3.077	0.318
77.001	116.423	80.000	19.995	103.216	20.357	3.272	0.335
77.500	116.586	80.001	19.994	103.214	20.357	3.272	0.316
78.000	116.754	80.002	19.995	103.215	20.355	3.433	0.317
78.500	116.906	80.002	19.995	103.220	20.355	3.382	0.325
79.000	117.097	80.003	19.995	103.224	20.355	3.445	0.332
79.500	117.240	80.001	19.997	103.229	20.357	3.277	0.339
80.000	117.381	80.002	19.995	103.232	20.354	3.501	0.309
80.500	117.551	80.002	19.997	103.232	20.355	3.445	0.297
81.000	117.741	80.001	19.995	103.231	20.355	3.443	0.335
81.500	117.882	80.001	19.995	103.231	20.353	3.536	0.345
82.001	118.091	80.001	19.995	103.231	20.355	3.444	0.340
82.501	118.272	80.001	19.996	103.231	20.357	3.305	0.370
83.000	118.415	80.002	19.995	103.231	20.357	3.265	0.357
83.500	118.613	80.002	19.995	103.232	20.353	3.563	0.332
84.000	118.731	80.001	19.996	103.230	20.355	3.378	0.329
84.500	118.932	80.001	19.995	103.230	20.355	3.378	0.318
85.000	119.125	80.000	19.997	103.231	20.356	3.351	0.356
85.500	119.327	80.001	19.995	103.231	20.357	3.296	0.394
86.000	119.555	80.003	19.995	103.231	20.355	3.435	0.412
86.500	119.685	80.002	19.995	103.231	20.355	3.433	0.394
87.000	119.854	80.000	19.996	103.231	20.354	3.512	0.329
87.500	120.049	80.002	19.993	103.230	20.353	3.533	0.332
88.000	120.274	80.002	19.995	103.234	20.352	3.592	0.392
88.500	120.415	80.001	19.995	103.237	20.354	3.502	0.393
89.000	120.608	80.001	19.996	103.239	20.353	3.575	0.350
89.500	120.804	80.001	19.996	103.243	20.353	3.545	0.362
90.000	120.951	80.002	19.996	103.250	20.350	3.759	0.367
90.500	121.156	80.002	19.994	103.250	20.352	3.625	0.347
91.000	121.349	80.002	19.995	103.247	20.352	3.652	0.374
91.500	121.563	80.001	19.995	103.245	20.355	3.392	0.402
92.001	121.736	80.002	19.995	103.240	20.354	3.491	0.397
92.501	121.928	80.003	19.995	103.233	20.353	3.523	0.377
93.000	122.118	80.002	19.995	103.229	20.353	3.546	0.374
93.500	122.296	80.003	19.996	103.230	20.354	3.477	0.375
94.000	122.493	80.002	19.996	103.233	20.352	3.648	0.371
94.500	122.716	80.002	19.995	103.235	20.350	3.788	0.397
95.000	122.909	80.003	19.995	103.239	20.350	3.774	0.418
95.500	123.061	80.000	19.996	103.244	20.352	3.629	0.381
96.000	123.301	80.002	19.994	103.244	20.355	3.439	0.368
96.500	123.469	80.001	19.995	103.240	20.351	3.673	0.400
97.000	123.670	80.002	19.995	103.239	20.353	3.556	0.388
97.500	123.921	80.002	19.996	103.236	20.352	3.602	0.410
98.000	124.089	80.002	19.995	103.233	20.350	3.763	0.436
98.500	124.326	80.002	19.994	103.234	20.350	3.736	0.412
99.001	124.518	80.002	19.994	103.240	20.349	3.838	0.417
99.501	124.690	80.001	19.995	103.247	20.350	3.792	0.397
100.000	124.936	80.002	19.995	103.252	20.351	3.696	0.391
100.500	125.160	80.002	19.996	103.256	20.350	3.790	0.443
101.001	125.337	80.003	19.995	103.258	20.347	3.956	0.435
101.501	125.560	80.002	19.996	103.253	20.352	3.610	0.401
102.000	125.758	80.002	19.996	103.253	20.351	3.684	0.411
102.500	125.953	80.002	19.996	103.250	20.349	3.818	0.407
103.000	126.155	80.002	19.996	103.248	20.351	3.686	0.395
103.500	126.369	80.001	19.996	103.245	20.350	3.755	0.407
104.000	126.601	80.002	19.994	103.245	20.348	3.866	0.431
104.501	126.814	80.002	19.994	103.241	20.351	3.660	0.446
105.001	127.032	80.002	19.995	103.243	20.350	3.731	0.438
105.500	127.222	80.002	19.993	103.244	20.351	3.700	0.420
106.000	127.425	80.000	19.996	103.248	20.347	3.991	0.400
106.500	127.636	80.001	19.996	103.249	20.346	4.006	0.403
107.000	127.904	80.001	19.996	103.249	20.349	3.818	0.446
107.500	128.100	80.002	19.995	103.249	20.348	3.885	0.472
108.000	128.294	80.000	19.995	103.249	20.349	3.846	0.427
108.501	128.500	79.999	19.998	103.250	20.348	3.896	0.395
109.001	128.732	79.998	19.996	103.253	20.348	3.915	0.419
109.501	128.981	79.999	19.996	103.251	20.347	3.967	0.460
110.001	129.167	80.000	19.996	103.250	20.347	3.986	0.458
110.501	129.396	80.000	19.995	103.253	20.350	3.743	0.425
111.001	129.608	79.999	19.996	103.253	20.348	3.916	0.429
111.500	129.853	80.000	19.996	103.254	20.348	3.879	0.449
112.000	130.065	80.000	19.993	103.258	20.348	3.902	0.456
112.500	130.272	80.000	19.996	103.253	20.346	4.027	0.438
113.000	130.493	79.999	19.997	103.247	20.350	3.789	0.424
113.501	130.717	79.999	19.995	103.243	20.349	3.851	0.437
114.001	130.970	79.998	19.998	103.241	20.347	3.937	0.461
114.500	131.196	79.999	19.996	103.245	20.347	3.990	0.478
115.000	131.427	80.001	19.996	103.252	20.349	3.839	0.468
115.500	131.629	80.001	19.995	103.260	20.348	3.915	0.445
116.000	131.847	80.001	19.997	103.266	20.347	3.980	0.426
116.500	132.066	80.001	19.995	103.264	20.346	4.019	0.428
117.000	132.336	80.000	19.998	103.256	20.347	3.940	0.463
117.500	132.562	80.001	19.997	103.248	20.347	3.994	0.492
118.000	132.752	80.002	19.997	103.241	20.348	3.923	0.456
118.500	133.031	80.001	19.995	103.233	20.347	3.971	0.443
119.000	133.217	80.002	19.996	103.230	20.346	4.047	0.467
119.500	133.449	80.002	19.996	103.232	20.349	3.827	0.441
120.001	133.674	80.002	19.995	103.233	20.348	3.869	0.438
120.501	133.959	80.002	19.995	103.234	20.348	3.892	0.484
121.000	134.137	80.002	19.996	103.239	20.345	4.114	0.487
121.500	134.401	80.003	19.994	103.240	20.347	3.948	0.452
122.000	134.670	80.003	19.995	103.239	20.347	3.965	0.487
122.500	134.879	80.003	19.993	103.238	20.344	4.191	0.506
123.000	135.113	80.003	19.995	103.237	20.350	3.741	0.461
123.500	135.346	80.004	19.994	103.238	20.350	3.779	0.455
124.000	135.583	80.002	19.994	103.239	20.347	3.944	0.468
124.501	135.799	80.003	19.995	103.240	20.347	3.994	0.461
125.001	136.015	80.002	19.994	103.240	20.346	4.021	0.443
125.500	136.293	80.003	19.994	103.240	20.346	4.045	0.463
126.000	136.476	80.003	19.995	103.235	20.347	3.982	0.477
126.500	136.765	80.002	19.993	103.233	20.343	4.227	0.467
127.000	136.999	80.002	19.994	103.232	20.346	4.016	0.498
127.500	137.244	80.003	19.994	103.232	20.343	4.282	0.501
128.000	137.505	80.002	19.995	103.232	20.347	3.991	0.492
128.500	137.736	80.002	19.994	103.234	20.345	4.122	0.499
129.000	137.976	80.003	19.993	103.234	20.347	3.966	0.482
129.500	138.230	80.002	19.994	103.233	20.347	3.991	0.483
130.000	138.458	80.003	19.994	103.233	20.349	3.853	0.488
130.500	138.732	80.001	19.994	103.231	20.351	3.718	0.492
131.000	138.918	80.001	19.993	103.229	20.349	3.853	0.481
131.500	139.145	80.003	19.995	103.228	20.346	4.027	0.437
132.000	139.418	80.001	19.994	103.230	20.350	3.767	0.456
132.500	139.645	80.002	19.996	103.231	20.349	3.847	0.500
133.000	139.922	80.002	19.994	103.233	20.350	3.771	0.502
133.500	140.188	80.001	19.995	103.234	20.350	3.729	0.523
134.000	140.378	80.001	19.995	103.234	20.347	3.991	0.500
134.500	140.665	80.002	19.994	103.233	20.344	4.171	0.467
135.000	140.877	80.001	19.994	103.232	20.348	3.889	0.488
135.500	141.149	80.001	19.993	103.232	20.346	4.006	0.491
136.000	141.364	80.001	19.996	103.231	20.347	3.994	0.486
136.500	141.576	80.001	19.994	103.228	20.346	4.006	0.457
137.000	141.821	80.001	19.996	103.223	20.345	4.092	0.442
137.500	142.076	80.001	19.995	103.222	20.351	3.656	0.478
138.000	142.333	80.003	19.995	103.221	20.346	4.006	0.506
138.500	142.577	80.004	19.996	103.220	20.345	4.105	0.507
139.000	142.818	80.001	19.998	103.219	20.346	4.048	0.493
139.500	143.043	80.002	19.995	103.222	20.345	4.090	0.476
140.000	143.310	80.003	19.994	103.219	20.345	4.073	0.479
140.500	143.560	80.002	19.994	103.214	20.346	4.032	0.504
141.000	143.804	80.001	19.995	103.211	20.344	4.189	0.506
141.500	144.023	80.003	19.995	103.214	20.347	3.992	0.478
142.000	144.302	80.004	19.994	103.210	20.347	3.985	0.480
142.500	144.522	80.003	19.995	103.206	20.350	3.786	0.499
143.000	144.779	80.002	19.993	103.204	20.350	3.790	0.488
143.500	145.036	80.003	19.993	103.203	20.347	3.950	0.496
144.000	145.301	80.004	19.994	103.201	20.348	3.891	0.518
144.500	145.533	80.004	19.995	103.203	20.348	3.893	0.509
145.000	145.779	80.005	19.994	103.205	20.349	3.807	0.488
145.500	146.029	80.004	19.993	103.204	20.347	3.965	0.487
146.000	146.247	80.004	19.995	103.202	20.348	3.904	0.482
146.500	146.477	80.005	19.995	103.198	20.348	3.901	0.458
147.000	146.738	80.004	19.995	103.194	20.346	4.048	0.470
147.500	146.974	80.004	19.995	103.193	20.345	4.102	0.494
148.000	147.228	80.003	19.994	103.193	20.348	3.909	0.493
148.500	147.461	80.004	19.994	103.192	20.344	4.169	0.489
149.000	147.681	80.005	19.993	103.193	20.348	3.924	0.471
149.500	147.936	80.004	19.994	103.193	20.347	3.935	0.464
150.000	148.146	80.004	19.994	103.193	20.346	4.019	0.470
150.500	148.419	80.004	19.994	103.192	20.348	3.893	0.474
151.000	148.609	80.005	19.996	103.193	20.345	4.082	0.473
151.500	148.902	80.006	19.995	103.192	20.344	4.178	0.473
152.000	149.161	80.004	19.994	103.190	20.345	4.099	0.517
152.500	149.369	80.003	19.995	103.191	20.346	4.067	0.510
153.000	149.631	80.004	19.993	103.192	20.344	4.170	0.469
153.500	149.842	80.004	19.994	103.192	20.347	3.994	0.472
154.000	150.107	80.002	19.994	103.193	20.344	4.187	0.475
154.500	150.317	80.003	19.995	103.193	20.345	4.096	0.475
155.000	150.585	80.002	19.996	103.193	20.349	3.811	0.476
155.500	150.792	80.003	19.995	103.191	20.347	3.971	0.476
156.000	151.064	80.003	19.993	103.190	20.346	4.023	0.478
156.500	151.296	80.002	19.995	103.192	20.349	3.835	0.492
157.000	151.545	80.002	19.994	103.196	20.346	4.032	0.492
157.500	151.813	80.003	19.994	103.199	20.347	3.960	0.499
158.000	152.058	80.001	19.995	103.205	20.348	3.870	0.515
158.500	152.289	80.003	19.994	103.206	20.350	3.765	0.494
159.000	152.530	80.002	19.995	103.204	20.347	3.998	0.475
159.500	152.761	80.003	19.995	103.200	20.346	4.069	0.473
160.000	152.988	80.002	19.994	103.198	20.344	4.197	0.465
160.500	153.298	80.002	19.994	103.192	20.346	4.063	0.497
161.000	153.478	80.002	19.994	103.191	20.346	4.013	0.513
161.500	153.745	80.002	19.994	103.190	20.345	4.115	0.468
162.000	153.966	80.002	19.995	103.190	20.342	4.316	0.468
162.500	154.193	80.002	19.994	103.189	20.345	4.090	0.468
163.000	154.420	80.002	19.993	103.189	20.341	4.359	0.451
163.500	154.668	80.002	19.995	103.189	20.340	4.449	0.464
164.000	154.904	80.002	19.995	103.191	20.342	4.336	0.480
164.500	155.127	80.002	19.995	103.191	20.343	4.212	0.472
165.000	155.340	80.002	19.996	103.192	20.340	4.440	0.447
165.500	155.593	80.002	19.996	103.192	20.342	4.323	0.451
166.000	155.844	80.002	19.996	103.192	20.343	4.224	0.485
166.500	156.128	80.001	19.995	103.191	20.344	4.191	0.520
167.000	156.299	80.002	19.994	103.192	20.342	4.341	0.495
167.500	156.578	80.002	19.996	103.191	20.341	4.371	0.452
168.000	156.782	80.000	19.994	103.191	20.341	4.373	0.466
168.500	157.049	80.002	19.996	103.191	20.341	4.364	0.477
169.000	157.280	80.001	19.996	103.192	20.338	4.563	0.484
169.500	157.509	80.002	19.993	103.193	20.340	4.461	0.479
170.000	157.759	80.001	19.992	103.193	20.343	4.243	0.470
170.500	158.000	80.001	19.995	103.194	20.342	4.314	0.485
171.000	158.251	80.002	19.996	103.194	20.342	4.289	0.491
171.500	158.479	80.001	19.996	103.192	20.341	4.371	0.485
172.000	158.732	80.001	19.993	103.192	20.342	4.297	0.480
172.500	158.976	80.002	19.996	103.192	20.341	4.373	0.489
