Sample ID:	C:\MCC\MCC Cal\Test\Bravo_OSB_MCC_30K_min_211207_R2.txt
Sample Weight (mg):	4.82
Heating Rate (C/s):	0.5
Combustor Temp (C):	900
N2 Flow Rate (cc/min):	80
O2 Flow Rate (cc/min):	20
Calibration File:	C:\MCC\MCC Cal\Coeff1 JN10440_30_210304.txt.txt
T Correction Coefficients:	0	1.024463	0
Time Shift (s):	14
*
Time (s)	Temperature (C)	N2 flow rate (cc/min)	O2 flow rate (cc/min)	Flow Rate (cc/min)	Oxygen (%)	HRR (W/g)	Heating rate (C/s)
0.000	108.129	80.005	19.997	103.114	20.045	-0.205	0.038
0.500	108.139	80.006	19.995	103.117	20.042	-0.005	0.022
1.000	108.143	80.006	19.996	103.114	20.042	0.011	0.012
1.500	108.105	80.006	19.995	103.112	20.042	0.055	-0.010
2.000	108.139	80.006	19.995	103.107	20.041	0.060	-0.019
2.500	108.144	80.006	19.995	103.099	20.044	-0.089	0.017
3.000	108.142	80.005	19.996	103.098	20.040	0.133	0.021
3.500	108.129	80.005	19.995	103.099	20.038	0.275	-0.006
4.000	108.141	80.006	19.996	103.105	20.040	0.184	-0.008
4.500	108.171	80.006	19.995	103.106	20.041	0.096	0.021
5.000	108.114	80.005	19.994	103.106	20.038	0.280	0.008
5.500	108.132	80.006	19.996	103.112	20.042	0.024	-0.033
6.000	108.125	80.005	19.995	103.119	20.038	0.293	-0.014
6.500	108.142	80.006	19.995	103.121	20.038	0.302	0.011
7.000	108.142	80.006	19.996	103.129	20.041	0.107	0.013
7.500	108.171	80.006	19.995	103.139	20.046	-0.242	0.023
8.000	108.148	80.006	19.996	103.141	20.039	0.208	0.017
8.500	108.179	80.006	19.995	103.141	20.038	0.268	0.007
9.000	108.143	80.006	19.995	103.141	20.034	0.537	0.002
9.500	108.157	80.006	19.995	103.141	20.034	0.550	-0.014
10.000	108.215	80.007	19.996	103.138	20.034	0.524	0.025
10.500	108.186	80.006	19.994	103.140	20.030	0.821	0.051
11.001	108.212	80.006	19.995	103.147	20.030	0.847	0.013
11.501	108.185	80.006	19.995	103.155	20.029	0.865	-0.002
12.000	108.192	80.005	19.995	103.162	20.028	0.954	-0.010
12.500	108.184	80.006	19.995	103.169	20.029	0.909	-0.010
13.000	108.153	80.006	19.996	103.174	20.027	1.007	-0.020
13.500	108.188	80.006	19.995	103.176	20.028	0.987	-0.018
14.000	108.234	80.006	19.995	103.183	20.029	0.889	0.042
14.500	108.261	80.006	19.996	103.191	20.025	1.140	0.077
15.000	108.266	80.007	19.995	103.201	20.021	1.413	0.053
15.500	108.236	80.006	19.996	103.217	20.025	1.164	0.003
16.000	108.288	80.007	19.996	103.228	20.024	1.220	-0.001
16.501	108.328	80.006	19.996	103.234	20.019	1.530	0.057
17.000	108.349	80.007	19.996	103.242	20.016	1.757	0.076
17.500	108.352	80.008	19.995	103.247	20.017	1.672	0.042
18.000	108.398	80.006	19.995	103.249	20.012	2.032	0.036
18.500	108.428	80.007	19.996	103.254	20.014	1.923	0.063
19.000	108.417	80.008	19.996	103.262	20.011	2.080	0.048
19.500	108.452	80.006	19.995	103.269	20.010	2.146	0.022
20.000	108.495	80.007	19.996	103.276	20.010	2.138	0.051
20.500	108.568	80.007	19.995	103.278	20.012	2.049	0.097
21.000	108.621	80.008	19.996	103.280	20.009	2.238	0.120
21.500	108.671	80.009	19.995	103.282	20.007	2.357	0.115
22.000	108.674	80.007	19.994	103.281	20.007	2.389	0.078
22.500	108.684	80.007	19.995	103.281	20.007	2.355	0.033
23.000	108.764	80.007	19.994	103.281	20.006	2.408	0.051
23.500	108.796	80.006	19.995	103.284	20.012	2.060	0.101
24.000	108.857	80.007	19.994	103.283	20.002	2.719	0.102
24.500	108.894	80.006	19.994	103.284	20.010	2.166	0.096
25.000	108.924	80.006	19.994	103.284	20.002	2.676	0.083
25.500	108.971	80.005	19.994	103.288	20.007	2.386	0.072
26.000	109.048	80.007	19.996	103.286	20.007	2.386	0.100
26.500	109.112	80.005	19.994	103.287	20.006	2.416	0.132
27.000	109.163	80.006	19.996	103.287	19.998	2.942	0.128
27.500	109.227	80.007	19.995	103.288	20.004	2.580	0.115
28.000	109.306	80.007	19.995	103.290	20.001	2.778	0.129
28.500	109.368	80.006	19.995	103.293	20.003	2.607	0.142
29.000	109.437	80.007	19.994	103.296	20.004	2.565	0.137
29.500	109.517	80.006	19.994	103.302	20.000	2.805	0.140
30.000	109.581	80.007	19.996	103.308	20.003	2.600	0.146
30.500	109.668	80.005	19.995	103.308	19.999	2.887	0.147
31.000	109.717	80.006	19.995	103.311	19.999	2.927	0.144
31.500	109.765	80.007	19.996	103.308	20.001	2.771	0.117
32.000	109.873	80.009	19.995	103.303	20.000	2.855	0.127
32.500	109.932	80.008	19.995	103.298	20.004	2.541	0.161
33.000	110.038	80.006	19.995	103.294	20.002	2.672	0.166
33.500	110.110	80.008	19.994	103.296	20.004	2.534	0.172
34.000	110.224	80.008	19.994	103.302	20.001	2.796	0.182
34.500	110.279	80.008	19.995	103.308	20.002	2.667	0.177
35.001	110.366	80.006	19.995	103.313	19.997	3.017	0.155
35.501	110.493	80.008	19.995	103.320	19.994	3.210	0.178
36.000	110.579	80.007	19.994	103.323	19.997	3.042	0.213
36.500	110.651	80.008	19.995	103.324	19.997	3.008	0.186
37.000	110.755	80.008	19.994	103.325	19.999	2.913	0.168
37.500	110.863	80.006	19.994	103.327	19.998	2.969	0.194
38.000	110.967	80.009	19.995	103.327	19.998	2.939	0.212
38.500	111.062	80.007	19.995	103.327	19.999	2.911	0.205
39.001	111.134	80.007	19.993	103.327	19.997	3.059	0.183
39.501	111.266	80.007	19.995	103.327	19.994	3.246	0.186
40.001	111.311	80.009	19.994	103.326	19.996	3.117	0.190
40.501	111.450	80.008	19.994	103.327	19.998	2.952	0.181
41.001	111.535	80.008	19.994	103.327	19.996	3.090	0.204
41.500	111.683	80.008	19.994	103.327	19.996	3.125	0.228
42.000	111.761	80.008	19.995	103.328	19.995	3.160	0.229
42.501	111.852	80.010	19.994	103.327	19.995	3.160	0.197
43.001	112.028	80.009	19.995	103.328	19.990	3.468	0.218
43.500	112.100	80.008	19.994	103.327	19.992	3.391	0.257
44.001	112.241	80.008	19.995	103.326	19.994	3.227	0.230
44.501	112.330	80.009	19.994	103.326	19.994	3.246	0.222
45.000	112.437	80.008	19.994	103.326	19.996	3.071	0.213
45.501	112.585	80.008	19.994	103.326	19.994	3.260	0.225
46.001	112.700	80.008	19.994	103.326	19.993	3.304	0.259
46.500	112.820	80.008	19.996	103.327	19.990	3.477	0.249
47.000	112.930	80.008	19.994	103.328	19.989	3.557	0.233
47.501	113.083	80.009	19.994	103.329	19.991	3.443	0.246
48.001	113.199	80.009	19.994	103.330	19.991	3.430	0.266
48.501	113.323	80.007	19.995	103.331	19.988	3.650	0.254
49.000	113.457	80.008	19.995	103.332	19.993	3.333	0.249
49.500	113.579	80.008	19.995	103.333	19.992	3.341	0.257
50.000	113.712	80.007	19.993	103.332	19.986	3.760	0.255
50.500	113.840	80.007	19.994	103.331	19.983	3.953	0.258
51.000	113.991	80.007	19.994	103.334	19.988	3.634	0.270
51.500	114.097	80.007	19.994	103.339	19.984	3.885	0.268
52.000	114.250	80.007	19.995	103.343	19.989	3.559	0.258
52.500	114.387	80.008	19.995	103.350	19.986	3.736	0.275
53.000	114.562	80.009	19.995	103.354	19.983	3.977	0.301
53.500	114.692	80.007	19.994	103.359	19.989	3.585	0.309
54.000	114.808	80.008	19.995	103.360	19.988	3.652	0.276
54.500	114.963	80.008	19.994	103.361	19.983	3.953	0.258
55.000	115.104	80.010	19.995	103.361	19.988	3.667	0.283
55.500	115.234	80.008	19.994	103.363	19.989	3.574	0.284
56.001	115.388	80.008	19.994	103.364	19.988	3.667	0.278
56.501	115.525	80.009	19.994	103.363	19.987	3.729	0.287
57.000	115.618	80.008	19.995	103.362	19.988	3.611	0.260
57.500	115.824	80.009	19.994	103.363	19.986	3.767	0.265
58.000	115.969	80.009	19.994	103.366	19.988	3.651	0.325
58.501	116.090	80.010	19.994	103.366	19.989	3.548	0.308
59.001	116.271	80.008	19.994	103.368	19.983	3.957	0.284
59.501	116.398	80.011	19.995	103.369	19.986	3.763	0.305
60.001	116.559	80.009	19.994	103.370	19.985	3.853	0.298
60.501	116.716	80.009	19.994	103.370	19.990	3.496	0.303
61.000	116.871	80.008	19.993	103.370	19.988	3.662	0.315
61.500	117.042	80.010	19.993	103.370	19.988	3.618	0.319
62.000	117.200	80.009	19.994	103.369	19.988	3.667	0.328
62.500	117.341	80.010	19.994	103.369	19.987	3.711	0.314
63.000	117.509	80.010	19.993	103.369	19.985	3.868	0.304
63.500	117.697	80.008	19.994	103.368	19.988	3.654	0.333
64.000	117.832	80.011	19.994	103.369	19.985	3.835	0.340
64.500	118.013	80.010	19.994	103.369	19.987	3.711	0.319
65.000	118.148	80.010	19.994	103.369	19.983	3.937	0.315
65.500	118.289	80.009	19.993	103.370	19.982	4.014	0.296
66.000	118.488	80.009	19.995	103.370	19.985	3.837	0.308
66.500	118.686	80.010	19.993	103.370	19.981	4.083	0.369
67.000	118.844	80.009	19.993	103.373	19.983	3.959	0.377
67.500	119.047	80.010	19.994	103.375	19.984	3.897	0.358
68.000	119.243	80.010	19.994	103.376	19.985	3.809	0.380
68.500	119.395	80.011	19.994	103.376	19.987	3.700	0.374
69.000	119.563	80.009	19.994	103.376	19.985	3.815	0.334
69.500	119.758	80.009	19.993	103.373	19.984	3.906	0.341
70.000	119.940	80.009	19.994	103.369	19.982	4.063	0.370
70.500	120.092	80.008	19.993	103.369	19.986	3.786	0.356
71.000	120.317	80.009	19.993	103.369	19.987	3.684	0.355
71.500	120.473	80.009	19.995	103.373	19.991	3.421	0.379
72.000	120.656	80.008	19.994	103.378	19.988	3.643	0.360
72.500	120.886	80.007	19.994	103.385	19.986	3.751	0.377
73.000	121.030	80.008	19.994	103.389	19.990	3.481	0.393
73.500	121.213	80.007	19.994	103.389	19.988	3.607	0.350
74.000	121.397	80.008	19.993	103.385	19.989	3.541	0.347
74.500	121.619	80.005	19.993	103.380	19.986	3.802	0.387
75.000	121.806	80.007	19.995	103.375	19.990	3.503	0.407
75.500	122.000	80.005	19.995	103.378	19.989	3.550	0.395
76.000	122.212	80.007	19.996	103.383	19.987	3.716	0.393
76.500	122.443	80.006	19.994	103.384	19.988	3.632	0.425
77.000	122.615	80.008	19.994	103.384	19.988	3.665	0.423
77.500	122.799	80.007	19.995	103.384	19.987	3.704	0.379
78.000	122.994	80.007	19.995	103.380	19.989	3.580	0.367
78.500	123.183	80.005	19.995	103.376	19.986	3.740	0.381
79.000	123.398	80.008	19.995	103.377	19.985	3.816	0.394
79.500	123.547	80.007	19.994	103.381	19.980	4.144	0.385
80.000	123.766	80.005	19.995	103.381	19.989	3.559	0.366
80.500	123.988	80.006	19.995	103.381	19.986	3.760	0.404
81.000	124.199	80.007	19.995	103.385	19.988	3.616	0.437
81.500	124.416	80.007	19.994	103.385	19.983	4.001	0.431
82.000	124.617	80.006	19.995	103.380	19.989	3.576	0.423
82.500	124.823	80.006	19.995	103.380	19.985	3.849	0.413
83.000	125.026	80.008	19.995	103.378	19.986	3.767	0.408
83.500	125.215	80.006	19.995	103.374	19.991	3.465	0.401
84.000	125.452	80.006	19.995	103.371	19.985	3.804	0.409
84.500	125.624	80.006	19.996	103.372	19.983	3.991	0.418
85.000	125.839	80.007	19.995	103.369	19.983	3.962	0.397
85.500	126.045	80.007	19.994	103.371	19.985	3.860	0.404
86.000	126.303	80.007	19.995	103.371	19.987	3.676	0.442
86.500	126.516	80.006	19.993	103.372	19.985	3.858	0.467
87.000	126.742	80.007	19.995	103.374	19.986	3.771	0.455
87.500	126.904	80.006	19.995	103.379	19.985	3.811	0.414
88.000	127.123	80.007	19.996	103.379	19.984	3.902	0.384
88.501	127.356	80.007	19.995	103.378	19.986	3.754	0.416
89.001	127.583	80.008	19.995	103.377	19.985	3.818	0.456
89.500	127.778	80.008	19.994	103.373	19.984	3.884	0.441
90.000	128.033	80.007	19.993	103.370	19.985	3.835	0.436
90.501	128.233	80.007	19.994	103.371	19.986	3.773	0.453
91.001	128.477	80.008	19.995	103.372	19.986	3.749	0.450
91.501	128.651	80.008	19.994	103.375	19.981	4.123	0.430
92.001	128.877	80.007	19.994	103.376	19.979	4.236	0.409
92.501	129.073	80.007	19.995	103.377	19.987	3.718	0.411
93.001	129.305	80.006	19.995	103.375	19.983	3.962	0.426
93.501	129.505	80.007	19.995	103.375	19.987	3.701	0.430
94.001	129.714	80.007	19.994	103.374	19.982	4.033	0.420
94.501	129.955	80.006	19.995	103.376	19.986	3.758	0.429
95.000	130.150	80.008	19.995	103.375	19.986	3.751	0.443
95.500	130.409	80.007	19.994	103.378	19.985	3.813	0.445
96.000	130.645	80.006	19.995	103.377	19.985	3.843	0.475
96.500	130.867	80.007	19.994	103.374	19.983	3.955	0.476
97.000	131.101	80.006	19.996	103.372	19.987	3.709	0.457
97.500	131.346	80.006	19.994	103.372	19.987	3.671	0.467
98.000	131.537	80.007	19.995	103.370	19.987	3.682	0.457
98.500	131.748	80.007	19.995	103.370	19.982	4.008	0.419
99.000	131.989	80.007	19.995	103.369	19.988	3.605	0.427
99.500	132.214	80.006	19.994	103.372	19.988	3.647	0.459
100.000	132.442	80.008	19.995	103.372	19.983	3.973	0.460
100.500	132.671	80.007	19.996	103.371	19.985	3.857	0.455
101.000	132.890	80.006	19.995	103.373	19.986	3.764	0.452
101.500	133.153	80.006	19.995	103.375	19.985	3.862	0.464
102.000	133.346	80.007	19.997	103.375	19.986	3.738	0.469
102.500	133.571	80.008	19.994	103.373	19.986	3.774	0.437
103.000	133.822	80.006	19.995	103.374	19.992	3.392	0.448
103.500	134.092	80.008	19.996	103.372	19.985	3.858	0.499
104.000	134.264	80.005	19.996	103.370	19.988	3.658	0.481
104.500	134.529	80.006	19.995	103.370	19.987	3.714	0.440
105.000	134.729	80.005	19.996	103.370	19.985	3.822	0.451
105.500	135.003	80.006	19.996	103.370	19.984	3.907	0.469
106.000	135.235	80.006	19.996	103.370	19.985	3.864	0.490
106.500	135.462	80.006	19.996	103.368	19.983	3.984	0.483
107.000	135.671	80.006	19.997	103.368	19.985	3.825	0.447
107.500	135.922	80.005	19.996	103.373	19.988	3.610	0.448
108.000	136.110	80.007	19.996	103.373	19.987	3.714	0.449
108.500	136.403	80.005	19.997	103.374	19.989	3.561	0.460
109.000	136.658	80.006	19.997	103.375	19.985	3.805	0.514
109.501	136.863	80.005	19.995	103.376	19.984	3.904	0.504
110.001	137.098	80.005	19.996	103.374	19.988	3.647	0.450
110.500	137.332	80.005	19.995	103.379	19.983	3.951	0.455
111.000	137.571	80.006	19.996	103.378	19.989	3.574	0.471
111.500	137.842	80.005	19.996	103.378	19.988	3.658	0.491
112.000	138.086	80.005	19.996	103.376	19.989	3.578	0.513
112.500	138.343	80.006	19.996	103.374	19.986	3.763	0.508
113.000	138.564	80.006	19.995	103.369	19.988	3.667	0.489
113.500	138.811	80.006	19.995	103.368	19.990	3.532	0.473
114.000	139.047	80.005	19.995	103.369	19.989	3.543	0.475
114.500	139.284	80.006	19.995	103.369	19.981	4.111	0.478
115.000	139.560	80.006	19.995	103.370	19.984	3.887	0.494
115.500	139.800	80.005	19.995	103.370	19.987	3.729	0.515
116.000	140.037	80.006	19.994	103.370	19.982	4.013	0.496
116.501	140.315	80.008	19.995	103.368	19.984	3.935	0.496
117.001	140.532	80.007	19.994	103.368	19.986	3.798	0.505
117.500	140.759	80.008	19.995	103.368	19.982	4.015	0.469
118.000	141.022	80.006	19.995	103.367	19.986	3.747	0.468
118.500	141.208	80.006	19.994	103.369	19.984	3.893	0.470
119.000	141.504	80.008	19.994	103.371	19.989	3.587	0.465
119.500	141.732	80.008	19.994	103.371	19.986	3.738	0.503
120.000	141.952	80.008	19.994	103.372	19.984	3.873	0.486
120.500	142.238	80.008	19.994	103.372	19.981	4.106	0.478
121.000	142.502	80.007	19.994	103.371	19.984	3.878	0.528
121.500	142.724	80.008	19.993	103.372	19.987	3.685	0.518
122.001	142.984	80.008	19.994	103.371	19.988	3.605	0.483
122.501	143.238	80.007	19.994	103.372	19.984	3.905	0.498
123.000	143.485	80.008	19.995	103.372	19.985	3.841	0.508
123.500	143.767	80.010	19.994	103.372	19.986	3.783	0.515
124.001	143.998	80.009	19.993	103.369	19.991	3.442	0.521
124.501	144.200	80.008	19.994	103.367	19.989	3.601	0.473
125.000	144.518	80.009	19.995	103.365	19.983	3.938	0.476
125.501	144.727	80.008	19.994	103.364	19.989	3.585	0.524
126.001	144.974	80.008	19.995	103.364	19.986	3.794	0.492
126.500	145.257	80.008	19.994	103.364	19.988	3.663	0.493
127.000	145.531	80.008	19.994	103.364	19.985	3.823	0.543
127.500	145.745	80.008	19.994	103.366	19.991	3.446	0.522
128.000	145.974	80.008	19.993	103.366	19.985	3.813	0.466
128.500	146.194	80.008	19.994	103.367	19.988	3.641	0.446
129.000	146.459	80.007	19.994	103.367	19.990	3.508	0.467
129.501	146.713	80.005	19.994	103.368	19.989	3.552	0.502
130.000	146.980	80.007	19.995	103.367	19.986	3.778	0.520
130.500	147.209	80.008	19.995	103.368	19.987	3.677	0.509
131.000	147.476	80.007	19.995	103.367	19.987	3.696	0.496
131.500	147.704	80.008	19.995	103.366	19.990	3.481	0.495
132.000	147.946	80.007	19.995	103.367	19.984	3.909	0.483
132.500	148.202	80.008	19.994	103.367	19.988	3.627	0.484
133.000	148.444	80.007	19.994	103.364	19.989	3.588	0.498
133.500	148.717	80.007	19.995	103.360	19.989	3.594	0.507
134.000	148.937	80.008	19.995	103.362	19.987	3.668	0.504
134.500	149.252	80.008	19.995	103.362	19.985	3.851	0.514
135.000	149.481	80.008	19.994	103.362	19.988	3.654	0.540
135.500	149.713	80.007	19.995	103.364	19.989	3.541	0.503
136.000	149.984	80.006	19.995	103.366	19.987	3.693	0.482
136.500	150.226	80.007	19.994	103.363	19.984	3.879	0.508
137.000	150.492	80.008	19.994	103.363	19.987	3.708	0.510
137.500	150.734	80.007	19.994	103.364	19.987	3.679	0.508
138.000	150.958	80.007	19.994	103.364	19.988	3.653	0.487
138.500	151.239	80.006	19.995	103.365	19.989	3.566	0.485
139.000	151.491	80.007	19.993	103.368	19.985	3.806	0.519
139.500	151.706	80.007	19.993	103.367	19.988	3.642	0.501
140.000	151.980	80.008	19.993	103.364	19.989	3.544	0.478
140.500	152.234	80.007	19.995	103.359	19.986	3.788	0.508
141.000	152.529	80.008	19.994	103.359	19.982	4.041	0.538
141.500	152.776	80.006	19.995	103.359	19.986	3.773	0.545
142.000	153.037	80.009	19.995	103.360	19.983	3.999	0.525
142.500	153.234	80.008	19.995	103.364	19.986	3.768	0.483
143.000	153.535	80.007	19.994	103.369	19.990	3.474	0.478
143.500	153.742	80.007	19.993	103.370	19.984	3.879	0.503
144.000	154.016	80.007	19.994	103.369	19.987	3.689	0.494
144.500	154.242	80.009	19.995	103.367	19.985	3.848	0.491
145.000	154.509	80.009	19.994	103.365	19.986	3.760	0.497
145.501	154.763	80.008	19.993	103.362	19.990	3.511	0.507
146.000	155.016	80.007	19.993	103.357	19.989	3.580	0.514
146.500	155.249	80.008	19.993	103.355	19.983	3.975	0.497
147.000	155.506	80.009	19.995	103.352	19.989	3.565	0.488
147.500	155.728	80.009	19.995	103.347	19.987	3.675	0.484
148.000	155.990	80.007	19.994	103.346	19.990	3.525	0.482
148.500	156.224	80.009	19.994	103.350	19.989	3.562	0.490
149.000	156.498	80.009	19.995	103.349	19.988	3.638	0.502
149.500	156.749	80.010	19.993	103.350	19.987	3.699	0.516
150.000	156.980	80.010	19.994	103.350	19.990	3.522	0.503
150.500	157.214	80.009	19.994	103.350	19.991	3.403	0.473
151.000	157.480	80.009	19.993	103.346	19.991	3.442	0.483
151.500	157.698	80.010	19.995	103.343	19.989	3.593	0.493
152.000	157.971	80.009	19.994	103.339	19.986	3.755	0.487
152.500	158.178	80.010	19.994	103.337	19.993	3.283	0.485
153.000	158.500	80.010	19.994	103.335	19.990	3.516	0.504
153.500	158.736	80.009	19.993	103.335	19.989	3.558	0.543
154.000	158.958	80.008	19.994	103.335	19.986	3.755	0.508
154.500	159.202	80.008	19.994	103.336	19.988	3.651	0.462
155.000	159.452	80.009	19.993	103.339	19.988	3.604	0.480
155.500	159.732	80.009	19.994	103.338	19.989	3.593	0.512
156.000	159.927	80.008	19.993	103.337	19.990	3.514	0.502
156.500	160.201	80.007	19.993	103.336	19.990	3.507	0.472
157.000	160.471	80.007	19.993	103.336	19.992	3.388	0.507
157.500	160.696	80.006	19.993	103.332	19.992	3.399	0.519
158.000	160.977	80.008	19.994	103.332	19.992	3.398	0.500
158.500	161.233	80.007	19.994	103.333	19.988	3.613	0.522
159.000	161.490	80.007	19.994	103.336	19.993	3.307	0.525
159.500	161.774	80.006	19.994	103.335	19.987	3.696	0.527
160.000	161.987	80.008	19.993	103.335	19.992	3.372	0.519
160.500	162.273	80.008	19.995	103.340	19.992	3.345	0.498
161.000	162.494	80.007	19.993	103.338	19.992	3.341	0.503
161.500	162.748	80.005	19.995	103.336	19.990	3.520	0.491
162.000	163.018	80.008	19.994	103.341	19.989	3.545	0.499
162.500	163.274	80.007	19.994	103.343	19.995	3.144	0.525
163.000	163.529	80.007	19.994	103.339	19.993	3.326	0.518
163.500	163.749	80.006	19.994	103.338	19.988	3.612	0.493
164.000	164.033	80.007	19.994	103.339	19.992	3.399	0.490
164.500	164.256	80.006	19.994	103.335	19.990	3.503	0.505
165.000	164.546	80.005	19.995	103.336	19.991	3.405	0.510
165.500	164.786	80.006	19.995	103.337	19.990	3.483	0.522
166.000	165.040	80.007	19.994	103.337	19.990	3.500	0.512
166.500	165.298	80.007	19.995	103.335	19.991	3.439	0.503
167.000	165.557	80.007	19.994	103.334	19.994	3.243	0.515
167.500	165.787	80.007	19.994	103.331	19.993	3.274	0.503
168.000	166.033	80.005	19.995	103.329	19.994	3.219	0.482
168.500	166.316	80.006	19.994	103.330	19.995	3.159	0.503
169.000	166.561	80.006	19.994	103.332	19.990	3.469	0.529
169.500	166.803	80.006	19.994	103.333	19.993	3.330	0.507
170.000	167.074	80.007	19.995	103.333	19.992	3.356	0.500
170.500	167.326	80.007	19.995	103.332	19.989	3.560	0.518
171.001	167.560	80.005	19.995	103.332	19.989	3.536	0.505
171.500	167.807	80.007	19.995	103.330	19.994	3.223	0.483
172.000	168.070	80.006	19.994	103.330	19.990	3.472	0.495
172.501	168.347	80.007	19.994	103.330	19.988	3.634	0.525
