Sample ID:	C:\MCC\MCC Cal\Test\Polyester_Felt\Polyester_Felt_MCC_30K_min_21_07_09_R1.txt
Sample Weight (mg):	3.86
Heating Rate (C/s):	0.5
Combustor Temp (C):	900
N2 Flow Rate (cc/min):	80
O2 Flow Rate (cc/min):	20
Calibration File:	C:\MCC\MCC Cal\Coeff1 JN10440_30_210304.txt.txt
T Correction Coefficients:	0	1.024463	0
Time Shift (s):	14
*
Time (s)	Temperature (C)	N2 flow rate (cc/min)	O2 flow rate (cc/min)	Flow Rate (cc/min)	Oxygen (%)	HRR (W/g)	Heating rate (C/s)
0.000	109.089	79.998	19.995	99.936	20.131	0.018	-0.016
0.500	109.145	79.997	19.996	99.933	20.135	-0.311	-0.008
1.000	109.075	79.998	19.997	99.933	20.126	0.364	0.007
1.500	109.147	79.999	19.996	99.932	20.129	0.146	-0.006
2.000	109.074	79.998	19.996	99.932	20.129	0.129	0.000
2.500	109.078	79.998	19.996	99.932	20.129	0.131	-0.035
3.000	109.094	79.999	19.998	99.933	20.134	-0.271	-0.024
3.500	109.092	79.999	19.996	99.933	20.134	-0.286	0.017
4.000	109.067	79.999	19.997	99.932	20.129	0.160	-0.006
4.501	109.080	80.000	19.996	99.932	20.129	0.155	-0.019
5.001	109.046	79.998	19.997	99.931	20.130	0.047	-0.017
5.500	109.107	79.998	19.997	99.931	20.132	-0.078	0.002
6.000	109.097	79.998	19.996	99.931	20.133	-0.169	0.039
6.500	109.006	79.999	19.996	99.932	20.132	-0.089	-0.024
7.000	109.028	79.996	19.996	99.932	20.132	-0.087	-0.085
7.500	109.058	79.996	19.995	99.933	20.132	-0.120	-0.009
8.000	109.029	79.996	19.996	99.933	20.131	0.018	0.026
8.500	109.071	80.001	19.997	99.933	20.134	-0.226	0.007
9.000	109.038	79.998	19.997	99.932	20.128	0.277	0.011
9.500	109.028	79.997	19.996	99.933	20.134	-0.229	-0.017
10.000	109.065	79.998	19.996	99.932	20.129	0.140	-0.008
10.500	109.043	79.996	19.995	99.932	20.127	0.293	0.021
11.000	109.011	79.998	19.996	99.932	20.131	-0.020	-0.019
11.500	109.065	79.996	19.996	99.932	20.128	0.264	-0.016
12.000	109.018	79.999	19.997	99.931	20.132	-0.060	0.015
12.500	109.025	79.998	19.996	99.931	20.138	-0.584	-0.016
13.000	109.032	79.997	19.997	99.931	20.130	0.078	-0.013
13.500	109.044	79.997	19.996	99.931	20.130	0.058	0.016
14.000	109.028	79.996	19.996	99.933	20.131	0.007	0.008
14.500	109.022	79.996	19.997	99.933	20.135	-0.340	-0.012
15.000	109.050	79.994	19.995	99.933	20.131	-0.031	0.000
15.500	109.025	79.995	19.997	99.936	20.131	-0.002	0.012
16.000	109.014	79.998	19.996	99.937	20.134	-0.229	-0.017
16.500	109.027	79.997	19.996	99.938	20.131	-0.024	-0.017
17.000	109.015	79.996	19.996	99.937	20.133	-0.144	0.002
17.500	109.006	79.998	19.997	99.935	20.135	-0.291	-0.010
18.000	108.999	79.997	19.996	99.933	20.128	0.202	-0.019
18.500	108.987	79.994	19.996	99.932	20.131	-0.040	-0.018
19.000	108.981	79.995	19.997	99.933	20.130	0.060	-0.018
19.500	109.013	79.995	19.995	99.938	20.130	0.042	0.005
20.000	109.010	79.995	19.997	99.940	20.134	-0.231	0.028
20.500	109.033	79.996	19.996	99.939	20.127	0.320	0.025
21.000	109.013	79.998	19.996	99.940	20.124	0.547	0.011
21.500	109.006	79.993	19.996	99.946	20.125	0.451	-0.012
22.000	108.992	79.995	19.996	99.950	20.126	0.389	-0.024
22.500	108.991	79.996	19.997	99.957	20.127	0.324	-0.018
23.000	109.043	79.996	19.996	99.966	20.128	0.220	0.018
23.500	109.033	79.994	19.996	99.974	20.121	0.809	0.047
24.000	109.037	79.995	19.996	99.974	20.128	0.262	0.017
24.500	109.021	79.996	19.997	99.975	20.119	1.006	-0.009
25.000	109.044	79.995	19.996	99.980	20.121	0.793	-0.002
25.500	109.063	79.995	19.997	99.982	20.120	0.849	0.025
26.000	109.038	79.995	19.997	99.985	20.122	0.713	0.018
26.500	109.038	79.994	19.998	99.993	20.122	0.716	-0.016
27.000	109.043	79.994	19.997	100.002	20.116	1.200	-0.011
27.500	109.042	79.997	19.997	100.009	20.117	1.131	0.005
28.000	109.084	79.995	19.998	100.016	20.116	1.245	0.023
28.500	109.085	79.996	19.998	100.023	20.116	1.191	0.042
29.000	109.127	79.996	19.997	100.024	20.119	1.002	0.043
29.500	109.130	79.995	19.996	100.026	20.118	1.082	0.044
30.000	109.139	79.995	19.997	100.028	20.110	1.712	0.028
30.500	109.171	79.996	19.997	100.030	20.110	1.692	0.026
31.000	109.169	79.996	19.997	100.035	20.115	1.265	0.035
31.500	109.183	79.995	19.997	100.042	20.114	1.392	0.021
32.000	109.186	79.996	19.997	100.046	20.120	0.905	0.015
32.500	109.222	79.996	19.996	100.049	20.116	1.194	0.028
33.000	109.250	79.994	19.997	100.053	20.111	1.637	0.051
33.500	109.286	79.995	19.996	100.049	20.115	1.274	0.064
34.000	109.309	79.994	19.996	100.047	20.115	1.319	0.062
34.500	109.312	79.996	19.996	100.042	20.109	1.775	0.043
35.001	109.346	79.994	19.997	100.040	20.107	1.953	0.032
35.501	109.371	79.996	19.996	100.035	20.116	1.176	0.048
36.000	109.373	79.996	19.998	100.038	20.113	1.419	0.043
36.501	109.428	79.997	19.996	100.040	20.115	1.305	0.042
37.001	109.475	79.993	19.997	100.045	20.112	1.495	0.079
37.500	109.472	79.995	19.997	100.051	20.106	1.986	0.073
38.000	109.573	79.995	19.997	100.058	20.107	1.910	0.071
38.500	109.585	79.995	19.996	100.060	20.110	1.724	0.106
39.000	109.609	79.993	19.997	100.060	20.104	2.193	0.075
39.500	109.638	79.996	19.996	100.067	20.107	1.924	0.044
40.000	109.705	79.994	19.996	100.071	20.107	1.910	0.074
40.500	109.734	79.996	19.995	100.077	20.106	2.015	0.096
41.001	109.818	79.993	19.994	100.085	20.103	2.270	0.105
41.501	109.854	79.994	19.996	100.092	20.106	1.988	0.117
42.000	109.885	79.993	19.995	100.094	20.106	2.010	0.093
42.500	109.948	79.994	19.995	100.100	20.107	1.939	0.080
43.000	109.977	79.995	19.996	100.108	20.104	2.150	0.093
43.500	110.054	79.995	19.996	100.115	20.101	2.428	0.099
44.000	110.095	79.994	19.996	100.122	20.101	2.440	0.112
44.500	110.146	79.994	19.996	100.124	20.106	2.026	0.105
45.000	110.221	79.997	19.996	100.126	20.102	2.327	0.109
45.500	110.275	79.995	19.994	100.126	20.102	2.305	0.127
46.000	110.316	79.996	19.996	100.127	20.100	2.496	0.112
46.500	110.436	79.998	19.996	100.129	20.100	2.542	0.128
47.000	110.507	79.997	19.995	100.133	20.096	2.825	0.176
47.500	110.595	79.995	19.995	100.134	20.101	2.411	0.175
48.000	110.640	79.994	19.996	100.135	20.099	2.551	0.146
48.501	110.737	79.994	19.995	100.135	20.098	2.687	0.138
49.001	110.791	79.994	19.996	100.134	20.097	2.723	0.147
49.500	110.875	79.994	19.996	100.135	20.095	2.936	0.145
50.000	110.953	79.996	19.997	100.135	20.094	2.989	0.150
50.500	111.021	79.995	19.996	100.130	20.098	2.629	0.154
51.000	111.104	79.995	19.997	100.126	20.091	3.239	0.148
51.501	111.198	79.996	19.996	100.125	20.099	2.620	0.164
52.001	111.274	79.995	19.995	100.123	20.097	2.752	0.173
52.501	111.379	79.996	19.996	100.119	20.097	2.745	0.175
53.000	111.443	79.998	19.996	100.122	20.093	3.092	0.175
53.500	111.538	79.997	19.997	100.125	20.096	2.863	0.164
54.000	111.623	79.996	19.996	100.127	20.095	2.910	0.169
54.500	111.705	79.997	19.996	100.129	20.090	3.348	0.174
55.000	111.812	79.997	19.996	100.138	20.092	3.174	0.178
55.500	111.903	79.997	19.997	100.147	20.093	3.072	0.194
56.000	112.011	79.996	19.997	100.153	20.096	2.830	0.198
56.500	112.145	80.000	19.996	100.155	20.085	3.731	0.221
57.000	112.197	79.997	19.997	100.156	20.091	3.264	0.214
57.501	112.315	79.998	19.996	100.154	20.092	3.130	0.178
58.001	112.382	79.995	19.997	100.153	20.088	3.455	0.177
58.500	112.517	79.998	19.997	100.152	20.090	3.324	0.194
59.000	112.569	79.998	19.995	100.150	20.087	3.566	0.194
59.500	112.721	79.996	19.997	100.150	20.090	3.288	0.195
60.000	112.850	79.996	19.997	100.150	20.088	3.462	0.242
60.500	112.926	79.998	19.995	100.146	20.091	3.272	0.243
61.000	113.071	79.997	19.994	100.141	20.087	3.542	0.213
61.500	113.156	79.997	19.996	100.145	20.087	3.577	0.226
62.000	113.299	79.999	19.997	100.149	20.088	3.439	0.229
62.500	113.361	79.999	19.996	100.149	20.091	3.224	0.217
63.000	113.510	79.999	19.997	100.151	20.089	3.411	0.208
63.500	113.681	79.997	19.996	100.158	20.085	3.746	0.266
64.000	113.745	79.998	19.995	100.158	20.086	3.651	0.277
64.500	113.899	80.000	19.996	100.156	20.090	3.301	0.226
65.000	114.036	79.996	19.995	100.159	20.088	3.442	0.254
65.500	114.154	79.995	19.996	100.161	20.088	3.439	0.273
66.000	114.269	79.999	19.997	100.162	20.089	3.362	0.244
66.500	114.394	79.997	19.996	100.163	20.080	4.125	0.237
67.000	114.524	79.995	19.995	100.166	20.085	3.744	0.247
67.500	114.627	79.998	19.996	100.166	20.090	3.293	0.244
68.000	114.769	79.998	19.995	100.165	20.087	3.555	0.239
68.501	114.895	79.997	19.996	100.164	20.088	3.442	0.256
69.001	115.047	79.996	19.996	100.164	20.086	3.671	0.273
69.500	115.163	79.996	19.996	100.165	20.089	3.386	0.273
70.000	115.285	79.999	19.997	100.164	20.087	3.564	0.253
70.500	115.438	79.997	19.995	100.164	20.081	4.027	0.256
71.000	115.559	79.999	19.996	100.165	20.083	3.875	0.274
71.500	115.682	79.997	19.996	100.166	20.086	3.640	0.259
72.000	115.837	79.998	19.997	100.166	20.082	3.993	0.261
72.500	115.976	79.997	19.997	100.167	20.086	3.662	0.286
73.000	116.138	79.997	19.996	100.168	20.088	3.446	0.298
73.500	116.300	79.998	19.996	100.168	20.088	3.471	0.313
74.000	116.460	79.997	19.995	100.168	20.082	3.938	0.323
74.500	116.576	79.998	19.996	100.167	20.085	3.740	0.298
75.000	116.746	79.999	19.995	100.167	20.087	3.537	0.281
75.500	116.898	79.999	19.996	100.166	20.087	3.584	0.304
76.000	117.026	79.997	19.996	100.166	20.084	3.789	0.301
76.500	117.223	79.997	19.997	100.166	20.086	3.644	0.303
77.000	117.347	79.998	19.997	100.167	20.089	3.419	0.323
77.500	117.488	79.999	19.996	100.168	20.086	3.629	0.293
78.000	117.646	79.999	19.997	100.169	20.090	3.284	0.282
78.500	117.827	79.994	19.995	100.169	20.085	3.682	0.319
79.000	117.953	79.999	19.997	100.168	20.085	3.751	0.323
79.501	118.146	79.997	19.996	100.168	20.085	3.698	0.313
80.001	118.287	79.998	19.996	100.168	20.081	4.074	0.327
80.500	118.430	79.997	19.995	100.168	20.090	3.277	0.309
81.000	118.599	79.998	19.995	100.165	20.089	3.408	0.298
81.501	118.762	79.999	19.996	100.165	20.084	3.838	0.322
82.001	118.932	79.999	19.996	100.165	20.086	3.606	0.332
82.500	119.068	80.000	19.996	100.165	20.086	3.651	0.320
83.000	119.257	80.000	19.998	100.164	20.082	3.947	0.315
83.500	119.406	79.998	19.995	100.168	20.090	3.330	0.331
84.000	119.645	79.999	19.996	100.169	20.088	3.497	0.363
84.500	119.754	79.997	19.996	100.169	20.087	3.569	0.368
85.000	119.913	79.998	19.996	100.168	20.089	3.373	0.308
85.500	120.097	79.999	19.995	100.168	20.084	3.778	0.306
86.000	120.284	79.996	19.994	100.168	20.084	3.820	0.357
86.500	120.449	79.997	19.995	100.167	20.087	3.527	0.362
87.000	120.607	79.999	19.995	100.167	20.090	3.335	0.338
87.500	120.804	80.001	19.997	100.167	20.085	3.720	0.339
88.001	120.939	79.998	19.995	100.169	20.083	3.842	0.343
88.501	121.156	79.998	19.996	100.172	20.086	3.629	0.342
89.001	121.320	79.996	19.996	100.173	20.087	3.591	0.366
89.500	121.477	79.998	19.996	100.176	20.086	3.613	0.351
90.000	121.672	79.998	19.996	100.176	20.084	3.796	0.337
90.500	121.844	79.997	19.997	100.175	20.084	3.771	0.360
91.000	122.013	79.997	19.997	100.173	20.083	3.860	0.354
91.500	122.211	79.997	19.996	100.173	20.086	3.607	0.354
92.001	122.410	79.997	19.996	100.169	20.090	3.291	0.382
92.501	122.590	79.996	19.996	100.169	20.091	3.204	0.388
93.000	122.804	79.994	19.996	100.169	20.089	3.431	0.387
93.500	122.964	79.995	19.996	100.169	20.088	3.480	0.384
94.000	123.133	79.995	19.996	100.169	20.090	3.287	0.352
94.501	123.337	79.994	19.997	100.170	20.084	3.792	0.352
95.001	123.516	79.995	19.996	100.170	20.086	3.638	0.378
95.500	123.688	79.997	19.997	100.174	20.087	3.596	0.367
96.001	123.886	79.994	19.996	100.176	20.087	3.591	0.361
96.501	124.063	79.995	19.997	100.177	20.085	3.682	0.373
97.000	124.268	79.997	19.997	100.179	20.084	3.812	0.378
97.500	124.404	79.995	19.997	100.181	20.085	3.700	0.361
98.000	124.664	79.996	19.997	100.178	20.085	3.727	0.368
98.500	124.811	79.995	19.997	100.176	20.081	4.045	0.401
99.000	124.990	79.994	19.996	100.175	20.080	4.166	0.367
99.500	125.204	79.994	19.997	100.179	20.082	3.965	0.360
100.000	125.389	79.993	19.996	100.179	20.083	3.863	0.397
100.500	125.583	79.995	19.997	100.179	20.079	4.224	0.389
101.000	125.755	79.995	19.997	100.180	20.082	3.943	0.372
101.500	125.983	79.994	19.995	100.180	20.077	4.399	0.383
102.000	126.175	79.995	19.995	100.177	20.087	3.573	0.410
102.500	126.371	79.995	19.995	100.177	20.083	3.881	0.403
103.000	126.578	79.996	19.996	100.177	20.084	3.809	0.396
103.500	126.757	79.996	19.997	100.181	20.081	4.074	0.395
104.001	126.946	79.997	19.997	100.187	20.072	4.798	0.377
104.501	127.139	79.994	19.996	100.190	20.079	4.239	0.375
105.000	127.370	79.994	19.995	100.187	20.076	4.448	0.403
105.500	127.558	79.995	19.996	100.192	20.082	4.001	0.421
106.000	127.732	79.997	19.996	100.188	20.077	4.397	0.391
106.500	127.970	79.995	19.997	100.182	20.083	3.898	0.387
107.000	128.163	79.996	19.996	100.178	20.076	4.450	0.422
107.501	128.402	79.995	19.996	100.182	20.077	4.355	0.432
108.001	128.552	79.997	19.999	100.183	20.074	4.628	0.410
108.500	128.803	79.996	19.996	100.184	20.072	4.768	0.395
109.000	129.008	79.995	19.996	100.184	20.074	4.586	0.428
109.500	129.196	79.995	19.995	100.187	20.078	4.277	0.424
110.000	129.417	79.995	19.997	100.191	20.075	4.515	0.401
110.500	129.643	79.995	19.995	100.193	20.073	4.718	0.428
111.000	129.829	79.994	19.996	100.198	20.078	4.255	0.429
111.500	130.030	79.994	19.997	100.200	20.080	4.164	0.400
112.000	130.232	79.995	19.998	100.196	20.081	4.028	0.396
112.500	130.449	79.997	19.997	100.190	20.081	4.008	0.411
113.000	130.668	79.995	19.996	100.185	20.083	3.895	0.427
113.500	130.818	79.995	19.996	100.183	20.079	4.242	0.402
114.000	131.019	79.996	19.998	100.184	20.075	4.545	0.360
114.501	131.303	79.995	19.997	100.191	20.077	4.355	0.418
115.001	131.529	79.996	19.997	100.197	20.078	4.286	0.497
115.500	131.751	79.993	19.997	100.199	20.076	4.480	0.479
116.000	131.987	79.997	19.997	100.195	20.075	4.549	0.453
116.500	132.168	79.996	19.998	100.196	20.079	4.197	0.437
117.000	132.376	79.995	19.997	100.193	20.082	3.964	0.403
117.500	132.604	79.994	19.998	100.187	20.082	3.950	0.412
118.000	132.830	79.995	19.997	100.183	20.086	3.647	0.445
118.500	133.062	79.996	19.998	100.187	20.079	4.241	0.456
119.000	133.257	79.996	19.998	100.188	20.078	4.293	0.443
119.500	133.478	79.994	19.997	100.187	20.077	4.406	0.422
120.000	133.666	79.995	19.997	100.190	20.081	4.068	0.412
120.501	133.908	79.997	19.998	100.194	20.082	3.975	0.419
121.001	134.142	79.995	19.997	100.197	20.073	4.731	0.453
121.500	134.346	79.995	19.998	100.198	20.081	4.066	0.457
122.000	134.595	79.996	19.998	100.200	20.081	4.084	0.446
122.500	134.836	79.995	19.997	100.202	20.079	4.206	0.471
123.000	135.054	79.995	19.996	100.203	20.083	3.924	0.474
123.500	135.254	79.994	19.997	100.202	20.078	4.286	0.438
124.000	135.475	79.996	19.997	100.202	20.079	4.199	0.420
124.500	135.742	79.994	19.995	100.204	20.079	4.244	0.455
125.000	135.965	79.995	19.997	100.205	20.079	4.215	0.489
125.500	136.202	79.996	19.998	100.205	20.080	4.132	0.475
126.000	136.389	79.996	19.996	100.202	20.073	4.658	0.442
126.501	136.646	79.995	19.997	100.203	20.075	4.540	0.434
127.001	136.897	79.995	19.997	100.203	20.078	4.295	0.476
127.500	137.110	79.995	19.997	100.202	20.076	4.486	0.486
128.000	137.325	79.994	19.996	100.201	20.085	3.738	0.446
128.500	137.539	79.995	19.998	100.201	20.084	3.841	0.429
129.000	137.796	79.994	19.996	100.198	20.074	4.642	0.450
129.500	138.049	79.997	19.997	100.195	20.082	3.981	0.490
130.000	138.302	79.995	19.996	100.195	20.073	4.700	0.508
130.500	138.527	79.994	19.996	100.196	20.076	4.457	0.492
131.000	138.771	79.997	19.996	100.197	20.081	4.046	0.473
131.500	139.031	79.997	19.997	100.199	20.083	3.886	0.486
132.000	139.238	79.996	19.997	100.202	20.076	4.413	0.485
132.500	139.470	79.996	19.996	100.205	20.081	4.079	0.453
133.000	139.686	79.997	19.997	100.205	20.082	3.968	0.443
133.500	139.928	79.998	19.997	100.206	20.074	4.579	0.453
134.000	140.216	79.996	19.996	100.206	20.079	4.172	0.495
134.500	140.459	79.996	19.997	100.201	20.072	4.766	0.530
135.000	140.713	79.995	19.995	100.197	20.079	4.168	0.514
135.500	140.919	79.998	19.997	100.195	20.075	4.506	0.478
136.000	141.194	79.997	19.994	100.195	20.075	4.568	0.470
136.500	141.434	79.997	19.996	100.197	20.077	4.353	0.498
137.000	141.662	79.997	19.995	100.201	20.080	4.099	0.492
137.500	141.902	79.996	19.995	100.203	20.078	4.326	0.468
138.000	142.124	79.998	19.996	100.204	20.080	4.148	0.465
138.500	142.388	79.998	19.996	100.199	20.079	4.246	0.474
139.000	142.639	79.996	19.996	100.193	20.076	4.459	0.500
139.500	142.863	79.999	19.996	100.191	20.076	4.441	0.495
140.000	143.105	79.996	19.995	100.191	20.079	4.208	0.471
140.500	143.383	79.997	19.996	100.191	20.077	4.341	0.493
141.000	143.629	79.998	19.995	100.194	20.078	4.305	0.522
141.500	143.855	79.996	19.994	100.197	20.081	4.015	0.498
142.000	144.081	79.999	19.997	100.199	20.083	3.890	0.462
142.500	144.324	79.997	19.998	100.199	20.083	3.920	0.461
143.000	144.601	79.998	19.996	100.194	20.082	3.947	0.494
143.500	144.824	79.999	19.998	100.188	20.076	4.469	0.510
144.000	145.095	79.996	19.995	100.190	20.081	4.043	0.497
144.500	145.351	79.995	19.995	100.188	20.077	4.376	0.511
145.000	145.575	79.997	19.996	100.187	20.084	3.829	0.504
145.500	145.833	79.997	19.998	100.189	20.076	4.449	0.481
146.000	146.109	79.998	19.995	100.191	20.081	4.075	0.508
146.500	146.337	79.998	19.996	100.189	20.077	4.389	0.519
147.000	146.586	79.998	19.997	100.193	20.076	4.482	0.490
147.500	146.825	79.996	19.995	100.194	20.074	4.583	0.482
148.000	147.087	79.997	19.996	100.199	20.076	4.475	0.494
148.500	147.338	79.998	19.996	100.203	20.077	4.372	0.507
149.000	147.547	79.998	19.997	100.205	20.078	4.259	0.487
149.500	147.786	79.996	19.996	100.201	20.076	4.434	0.455
150.000	148.073	79.998	19.997	100.194	20.077	4.336	0.487
150.500	148.312	79.996	19.997	100.188	20.080	4.109	0.526
151.000	148.555	79.998	19.997	100.182	20.080	4.094	0.504
151.500	148.811	79.998	19.997	100.179	20.077	4.381	0.491
152.000	149.100	79.996	19.996	100.178	20.078	4.252	0.522
152.500	149.357	79.997	19.996	100.157	20.080	4.150	0.545
153.000	149.585	79.996	19.996	100.131	20.078	4.276	0.516
153.500	149.841	79.998	19.997	100.120	20.080	4.154	0.484
154.000	150.101	79.999	19.996	100.117	20.077	4.345	0.499
154.500	150.337	79.998	19.996	100.115	20.082	3.958	0.506
155.000	150.571	79.997	19.996	100.138	20.076	4.450	0.483
155.500	150.843	79.997	19.996	100.173	20.075	4.563	0.488
156.000	151.081	79.996	19.998	100.230	20.083	3.853	0.508
156.500	151.290	79.996	19.997	100.251	20.085	3.684	0.478
157.000	151.586	79.997	19.996	100.258	20.083	3.887	0.476
157.500	151.854	79.997	19.996	100.261	20.078	4.298	0.534
158.000	152.059	79.997	19.997	100.256	20.082	3.967	0.519
158.500	152.332	79.997	19.996	100.211	20.083	3.911	0.476
159.000	152.587	79.997	19.997	100.191	20.079	4.212	0.503
159.500	152.856	79.996	19.995	100.185	20.075	4.532	0.526
160.000	153.063	79.998	19.996	100.183	20.080	4.085	0.500
160.500	153.344	79.999	19.995	100.179	20.079	4.178	0.482
161.000	153.598	80.000	19.995	100.177	20.083	3.865	0.511
161.500	153.842	79.997	19.996	100.176	20.079	4.172	0.516
162.000	154.071	79.998	19.997	100.178	20.082	3.996	0.486
162.500	154.343	79.999	19.996	100.181	20.079	4.212	0.487
163.000	154.564	80.000	19.996	100.180	20.080	4.127	0.497
163.500	154.844	79.999	19.997	100.180	20.078	4.298	0.497
164.000	155.115	80.000	19.997	100.182	20.083	3.922	0.526
164.500	155.366	80.000	19.997	100.178	20.079	4.171	0.536
165.000	155.583	79.999	19.997	100.174	20.078	4.247	0.495
165.500	155.862	80.000	19.995	100.174	20.081	4.011	0.482
166.000	156.081	79.997	19.994	100.174	20.079	4.243	0.497
166.500	156.334	79.998	19.996	100.172	20.079	4.169	0.485
167.000	156.626	79.996	19.995	100.172	20.076	4.418	0.508
167.500	156.866	79.998	19.996	100.172	20.085	3.722	0.539
168.000	157.138	79.996	19.994	100.171	20.081	4.049	0.522
168.500	157.410	79.999	19.996	100.171	20.083	3.916	0.528
169.000	157.639	79.999	19.995	100.172	20.089	3.391	0.523
169.500	157.911	79.997	19.995	100.172	20.073	4.661	0.501
170.000	158.138	79.999	19.997	100.173	20.076	4.427	0.500
170.500	158.386	79.998	19.997	100.173	20.082	3.931	0.487
171.000	158.687	79.995	19.995	100.174	20.081	4.004	0.512
171.500	158.929	79.997	19.996	100.174	20.085	3.708	0.546
172.000	159.157	79.996	19.997	100.174	20.077	4.384	0.506
172.500	159.456	79.997	19.995	100.173	20.080	4.104	0.498
