Sample ID:	C:\MCC\MCC Cal\Test\Countertop_Plastic_LaminateB_MCC_30K_min_211215_R2.txt
Sample Weight (mg):	4.71
Heating Rate (C/s):	0.5
Combustor Temp (C):	900
N2 Flow Rate (cc/min):	80
O2 Flow Rate (cc/min):	20
Calibration File:	C:\MCC\MCC Cal\Coeff1 JN10440_30_210304.txt.txt
T Correction Coefficients:	0	1.024463	0
Time Shift (s):	14
*
Time (s)	Temperature (C)	N2 flow rate (cc/min)	O2 flow rate (cc/min)	Flow Rate (cc/min)	Oxygen (%)	HRR (W/g)	Heating rate (C/s)
0.000	109.888	80.002	19.995	102.991	20.382	0.039	0.022
0.500	109.869	80.000	19.996	102.996	20.382	0.039	-0.005
1.000	109.876	80.000	19.994	102.994	20.381	0.095	-0.016
1.500	109.887	80.011	19.998	102.994	20.382	0.065	0.003
2.000	109.879	80.002	19.997	102.999	20.384	-0.093	0.010
2.500	109.875	80.004	19.997	103.002	20.384	-0.089	-0.004
3.000	109.864	80.002	19.999	103.001	20.385	-0.115	-0.013
3.500	109.879	80.002	19.996	103.004	20.388	-0.355	-0.005
4.000	109.899	80.001	19.998	103.005	20.385	-0.154	0.020
4.500	109.870	80.001	19.997	103.000	20.383	0.017	0.013
5.000	109.886	80.001	19.998	102.997	20.385	-0.173	-0.011
5.500	109.896	80.003	19.996	102.996	20.382	0.039	0.006
6.000	109.867	80.002	19.996	102.996	20.381	0.119	0.004
6.500	109.874	80.002	19.997	102.995	20.383	0.006	-0.020
7.000	109.886	80.005	19.996	102.996	20.381	0.160	-0.002
7.500	109.903	80.003	19.996	102.994	20.385	-0.136	0.024
8.001	109.853	80.002	19.996	102.994	20.380	0.221	-0.002
8.501	109.839	80.004	19.994	102.996	20.381	0.110	-0.049
9.000	109.883	80.004	19.996	103.000	20.383	0.007	-0.017
9.500	109.886	80.003	19.994	103.006	20.382	0.054	0.038
10.001	109.895	80.005	19.995	103.011	20.380	0.182	0.029
10.501	109.885	80.004	19.995	103.015	20.378	0.309	0.005
11.001	109.877	80.006	19.995	103.016	20.380	0.179	-0.009
11.501	109.873	80.006	19.994	103.017	20.380	0.218	-0.014
12.001	109.883	80.004	19.996	103.017	20.380	0.212	-0.003
12.500	109.910	80.004	19.995	103.016	20.383	-0.020	0.021
13.000	109.919	80.007	19.994	103.016	20.379	0.283	0.036
13.500	109.919	80.004	19.995	103.017	20.381	0.153	0.023
14.000	109.887	80.004	19.995	103.018	20.378	0.344	-0.012
14.500	109.913	80.003	19.995	103.017	20.377	0.391	-0.019
15.000	109.894	80.006	19.995	103.024	20.378	0.333	0.001
15.501	109.905	80.005	19.994	103.031	20.376	0.443	-0.001
16.001	109.990	80.004	19.994	103.038	20.376	0.501	0.044
16.502	109.936	80.004	19.995	103.046	20.377	0.370	0.064
17.001	109.978	80.004	19.995	103.053	20.375	0.529	0.009
17.500	109.951	80.005	19.995	103.055	20.375	0.562	0.002
18.000	109.983	80.006	19.995	103.058	20.372	0.767	0.010
18.501	109.967	80.004	19.995	103.066	20.373	0.704	0.010
19.001	110.022	80.005	19.995	103.073	20.369	0.925	0.027
19.500	110.042	80.003	19.996	103.081	20.369	0.937	0.057
20.000	109.994	80.005	19.995	103.088	20.369	0.933	0.024
20.500	110.065	80.004	19.996	103.091	20.371	0.821	-0.003
21.000	110.058	80.004	19.996	103.091	20.371	0.836	0.043
21.500	110.068	80.004	19.995	103.092	20.368	1.002	0.033
22.000	110.126	80.003	19.995	103.093	20.371	0.834	0.035
22.501	110.147	80.004	19.995	103.100	20.370	0.907	0.074
23.000	110.149	80.005	19.995	103.109	20.365	1.212	0.051
23.500	110.105	80.003	19.995	103.114	20.366	1.128	-0.009
24.000	110.206	80.004	19.995	103.118	20.365	1.201	0.008
24.500	110.252	80.002	19.995	103.125	20.363	1.332	0.102
25.000	110.220	80.003	19.995	103.126	20.363	1.356	0.080
25.500	110.308	80.003	19.994	103.127	20.366	1.149	0.035
26.001	110.316	80.004	19.995	103.131	20.361	1.501	0.076
26.501	110.307	80.004	19.994	103.136	20.359	1.624	0.047
27.000	110.417	80.005	19.996	103.138	20.360	1.539	0.050
27.500	110.446	80.004	19.995	103.142	20.361	1.524	0.120
28.000	110.437	80.004	19.996	103.149	20.357	1.779	0.079
28.500	110.547	80.006	19.996	103.153	20.357	1.747	0.060
29.000	110.550	80.003	19.996	103.157	20.355	1.932	0.107
29.500	110.620	80.004	19.996	103.163	20.357	1.784	0.093
30.000	110.647	80.004	19.994	103.165	20.356	1.850	0.085
30.500	110.688	80.004	19.994	103.166	20.360	1.585	0.083
31.000	110.729	80.006	19.994	103.170	20.353	2.040	0.075
31.500	110.792	80.004	19.995	103.172	20.353	2.016	0.093
32.000	110.820	80.004	19.995	103.172	20.355	1.886	0.097
32.500	110.907	80.004	19.995	103.173	20.353	2.038	0.103
33.001	110.967	80.004	19.996	103.173	20.351	2.193	0.131
33.501	111.051	80.005	19.996	103.173	20.351	2.176	0.145
34.001	111.106	80.006	19.994	103.178	20.352	2.137	0.141
34.500	111.164	80.004	19.994	103.185	20.352	2.089	0.126
35.000	111.246	80.006	19.995	103.193	20.349	2.344	0.127
35.501	111.288	80.005	19.995	103.201	20.350	2.266	0.132
36.001	111.380	80.003	19.995	103.210	20.344	2.640	0.129
36.500	111.434	80.006	19.994	103.213	20.347	2.456	0.140
37.000	111.496	80.005	19.994	103.214	20.345	2.566	0.131
37.501	111.567	80.007	19.995	103.214	20.342	2.765	0.125
38.001	111.656	80.004	19.995	103.213	20.343	2.735	0.147
38.500	111.708	80.005	19.995	103.211	20.343	2.711	0.150
39.001	111.785	80.004	19.994	103.211	20.340	2.963	0.135
39.501	111.897	80.005	19.994	103.211	20.338	3.050	0.159
40.000	111.961	80.004	19.996	103.212	20.340	2.903	0.183
40.500	112.042	80.005	19.995	103.212	20.340	2.946	0.161
41.000	112.129	80.005	19.995	103.215	20.340	2.933	0.156
41.500	112.224	80.005	19.994	103.221	20.339	2.995	0.174
42.001	112.321	80.005	19.995	103.227	20.340	2.935	0.187
42.501	112.435	80.005	19.995	103.235	20.338	3.037	0.202
43.000	112.535	80.004	19.994	103.240	20.338	3.088	0.212
43.500	112.637	80.003	19.994	103.240	20.338	3.051	0.208
44.000	112.694	80.001	19.995	103.238	20.337	3.159	0.181
44.500	112.794	80.003	19.995	103.235	20.336	3.181	0.158
45.000	112.914	80.004	19.996	103.236	20.338	3.062	0.188
45.500	113.024	80.003	19.995	103.239	20.337	3.142	0.225
46.000	113.107	80.003	19.995	103.244	20.339	2.983	0.212
46.501	113.223	80.003	19.995	103.248	20.340	2.900	0.196
47.001	113.356	80.002	19.994	103.253	20.341	2.877	0.224
47.501	113.466	80.003	19.994	103.252	20.339	3.028	0.245
48.000	113.603	80.004	19.993	103.251	20.340	2.950	0.244
48.500	113.658	80.003	19.995	103.252	20.340	2.963	0.220
49.000	113.790	80.003	19.994	103.253	20.339	3.030	0.190
49.500	113.907	80.004	19.994	103.251	20.336	3.214	0.218
50.000	114.075	80.004	19.995	103.253	20.336	3.196	0.266
50.500	114.169	80.003	19.994	103.254	20.337	3.112	0.274
51.000	114.317	80.002	19.995	103.254	20.340	2.939	0.252
51.500	114.389	80.003	19.995	103.254	20.340	2.952	0.231
52.000	114.525	80.002	19.994	103.256	20.338	3.069	0.214
52.500	114.662	80.003	19.994	103.256	20.339	2.993	0.241
53.001	114.783	80.002	19.994	103.256	20.334	3.345	0.265
53.501	114.908	80.004	19.994	103.256	20.337	3.148	0.252
54.001	115.059	80.003	19.995	103.256	20.336	3.209	0.261
54.501	115.195	80.001	19.994	103.257	20.334	3.340	0.281
55.001	115.314	80.003	19.995	103.256	20.335	3.282	0.271
55.501	115.442	80.001	19.994	103.256	20.334	3.336	0.251
56.001	115.630	80.002	19.995	103.256	20.335	3.273	0.282
56.500	115.754	80.004	19.994	103.256	20.339	3.031	0.314
57.000	115.893	80.001	19.996	103.256	20.335	3.303	0.287
57.500	116.039	80.002	19.995	103.256	20.336	3.181	0.274
58.000	116.138	80.003	19.996	103.256	20.339	2.995	0.265
58.500	116.311	80.002	19.995	103.256	20.333	3.377	0.259
59.000	116.455	80.003	19.994	103.255	20.337	3.157	0.295
59.500	116.605	80.001	19.995	103.256	20.337	3.163	0.306
60.000	116.747	80.002	19.996	103.256	20.334	3.362	0.293
60.501	116.963	80.003	19.994	103.256	20.334	3.366	0.325
61.001	117.092	80.003	19.995	103.256	20.332	3.484	0.352
61.501	117.249	80.003	19.995	103.258	20.333	3.422	0.315
62.001	117.376	80.002	19.994	103.260	20.331	3.540	0.284
62.501	117.535	80.001	19.995	103.263	20.332	3.490	0.285
63.001	117.716	80.001	19.995	103.265	20.332	3.510	0.313
63.500	117.875	80.001	19.995	103.267	20.334	3.372	0.340
64.001	118.051	80.002	19.996	103.269	20.333	3.426	0.337
64.501	118.207	80.003	19.996	103.270	20.328	3.752	0.333
65.000	118.374	80.004	19.995	103.270	20.329	3.655	0.328
65.500	118.513	80.001	19.995	103.270	20.330	3.631	0.314
66.000	118.746	80.004	19.995	103.274	20.333	3.445	0.339
66.501	118.847	80.001	19.995	103.277	20.332	3.506	0.354
67.001	119.014	80.003	19.996	103.281	20.332	3.475	0.301
67.501	119.202	80.004	19.995	103.280	20.329	3.657	0.311
68.001	119.382	80.002	19.995	103.278	20.329	3.668	0.362
68.500	119.521	80.001	19.995	103.273	20.332	3.463	0.344
69.000	119.702	80.001	19.995	103.270	20.329	3.676	0.319
69.500	119.898	80.003	19.995	103.267	20.333	3.402	0.349
70.000	120.091	80.002	19.995	103.272	20.329	3.672	0.383
70.500	120.270	80.003	19.994	103.274	20.328	3.749	0.381
71.000	120.398	80.002	19.996	103.277	20.327	3.823	0.339
71.501	120.623	80.002	19.995	103.280	20.332	3.514	0.329
72.001	120.815	80.004	19.995	103.283	20.330	3.629	0.385
72.500	120.991	80.003	19.994	103.285	20.326	3.860	0.393
73.000	121.154	80.002	19.995	103.290	20.327	3.849	0.354
73.500	121.363	80.001	19.995	103.291	20.330	3.636	0.356
74.000	121.551	80.003	19.996	103.288	20.330	3.595	0.385
74.500	121.730	80.001	19.996	103.287	20.328	3.733	0.382
75.001	121.870	80.002	19.996	103.286	20.329	3.677	0.343
75.501	122.102	80.002	19.995	103.285	20.329	3.681	0.345
76.001	122.246	80.003	19.996	103.284	20.329	3.663	0.373
76.501	122.465	80.001	19.996	103.287	20.329	3.655	0.369
77.001	122.712	80.002	19.996	103.288	20.327	3.855	0.414
77.501	122.848	80.003	19.994	103.288	20.327	3.838	0.425
78.001	123.035	80.003	19.996	103.287	20.331	3.551	0.353
78.500	123.265	80.001	19.996	103.287	20.325	3.972	0.370
79.000	123.457	80.002	19.997	103.287	20.330	3.627	0.419
79.500	123.639	80.001	19.996	103.288	20.326	3.862	0.398
80.000	123.854	80.002	19.997	103.287	20.330	3.586	0.386
80.501	124.071	80.005	19.995	103.290	20.329	3.715	0.415
81.001	124.214	80.001	19.995	103.289	20.327	3.843	0.396
81.501	124.461	80.003	19.996	103.288	20.331	3.568	0.375
82.000	124.642	80.003	19.995	103.286	20.329	3.707	0.409
82.500	124.821	80.004	19.996	103.282	20.330	3.637	0.394
83.000	125.048	80.004	19.997	103.275	20.328	3.769	0.383
83.500	125.257	80.003	19.995	103.274	20.329	3.683	0.421
84.000	125.468	80.001	19.995	103.272	20.324	4.017	0.428
84.501	125.644	80.005	19.996	103.272	20.325	3.929	0.403
85.001	125.884	80.004	19.995	103.274	20.327	3.808	0.402
85.500	126.085	80.001	19.997	103.279	20.326	3.864	0.429
86.000	126.295	80.004	19.996	103.280	20.328	3.750	0.426
86.500	126.551	80.003	19.996	103.282	20.328	3.771	0.438
87.000	126.696	80.004	19.997	103.284	20.325	3.948	0.433
87.501	126.970	80.004	19.998	103.288	20.328	3.767	0.410
88.001	127.120	80.004	19.997	103.286	20.328	3.737	0.422
88.501	127.346	80.003	19.996	103.287	20.328	3.776	0.400
89.000	127.583	80.003	19.996	103.287	20.326	3.892	0.419
89.500	127.763	80.004	19.996	103.286	20.326	3.905	0.440
90.001	128.010	80.003	19.996	103.285	20.325	3.991	0.422
90.501	128.188	80.003	19.997	103.284	20.328	3.780	0.426
91.000	128.385	80.005	19.997	103.280	20.327	3.841	0.400
91.501	128.658	80.002	19.996	103.280	20.325	3.957	0.422
92.001	128.841	80.004	19.996	103.279	20.326	3.909	0.463
92.500	129.097	80.003	19.995	103.280	20.326	3.912	0.448
93.000	129.321	80.004	19.996	103.281	20.323	4.106	0.459
93.500	129.527	80.005	19.995	103.283	20.323	4.097	0.455
94.000	129.755	80.004	19.997	103.278	20.326	3.909	0.432
94.500	130.005	80.004	19.996	103.274	20.327	3.804	0.456
95.000	130.197	80.004	19.995	103.275	20.323	4.092	0.460
95.501	130.431	80.002	19.995	103.277	20.326	3.924	0.434
96.001	130.637	80.002	19.996	103.278	20.325	3.944	0.433
96.500	130.860	80.002	19.996	103.282	20.327	3.799	0.434
97.000	131.057	80.005	19.995	103.283	20.322	4.189	0.425
97.501	131.311	80.003	19.995	103.281	20.324	4.021	0.436
98.001	131.552	80.003	19.996	103.277	20.322	4.172	0.473
98.501	131.752	80.002	19.996	103.274	20.325	3.927	0.468
99.000	131.977	80.004	19.996	103.273	20.323	4.121	0.433
99.500	132.189	80.004	19.995	103.276	20.325	3.950	0.431
100.000	132.444	80.002	19.995	103.277	20.327	3.825	0.452
100.500	132.643	80.003	19.995	103.276	20.329	3.665	0.461
101.000	132.902	80.005	19.995	103.279	20.328	3.776	0.456
101.500	133.108	80.002	19.995	103.281	20.326	3.916	0.461
102.000	133.356	80.006	19.994	103.278	20.327	3.836	0.460
102.500	133.555	80.005	19.995	103.277	20.328	3.769	0.451
103.000	133.820	80.003	19.994	103.279	20.328	3.788	0.455
103.500	134.050	80.003	19.995	103.279	20.327	3.805	0.479
104.000	134.296	80.002	19.994	103.280	20.328	3.734	0.486
104.501	134.500	80.005	19.996	103.281	20.324	4.010	0.463
105.001	134.763	80.005	19.996	103.283	20.326	3.909	0.458
105.501	134.954	80.002	19.995	103.286	20.326	3.875	0.461
106.001	135.245	80.004	19.996	103.287	20.323	4.116	0.468
106.501	135.452	79.999	19.994	103.287	20.327	3.840	0.490
107.001	135.688	80.006	19.995	103.290	20.324	4.028	0.470
107.501	135.959	80.005	19.994	103.290	20.326	3.877	0.475
108.001	136.166	80.004	19.995	103.289	20.325	3.929	0.493
108.501	136.404	80.001	19.995	103.288	20.322	4.138	0.462
109.000	136.650	80.005	19.994	103.286	20.324	4.035	0.465
109.501	136.901	80.002	19.994	103.285	20.324	4.020	0.491
110.001	137.114	80.007	19.994	103.285	20.324	4.054	0.481
110.500	137.399	80.005	19.994	103.284	20.326	3.896	0.481
111.001	137.607	80.005	19.995	103.284	20.326	3.905	0.495
111.501	137.875	80.006	19.994	103.284	20.326	3.868	0.484
112.001	138.137	80.004	19.996	103.285	20.322	4.169	0.503
112.501	138.419	80.006	19.994	103.284	20.326	3.899	0.537
113.000	138.628	80.005	19.994	103.282	20.328	3.783	0.517
113.501	138.852	80.006	19.997	103.284	20.323	4.100	0.462
114.001	139.110	80.007	19.995	103.286	20.324	4.024	0.458
114.500	139.357	80.006	19.997	103.288	20.322	4.172	0.493
115.000	139.660	80.006	19.995	103.288	20.329	3.702	0.527
115.500	139.893	80.005	19.994	103.289	20.325	3.976	0.543
116.000	140.148	80.005	19.994	103.288	20.325	3.987	0.512
116.500	140.357	80.006	19.994	103.286	20.327	3.828	0.476
117.000	140.588	80.007	19.996	103.282	20.326	3.920	0.452
117.500	140.870	80.005	19.994	103.281	20.324	4.028	0.477
118.000	141.063	80.004	19.995	103.279	20.323	4.069	0.494
118.501	141.315	80.005	19.994	103.277	20.324	4.044	0.460
119.001	141.568	80.005	19.994	103.276	20.323	4.085	0.475
119.501	141.779	80.005	19.996	103.277	20.323	4.113	0.484
120.001	142.054	80.005	19.996	103.275	20.327	3.852	0.475
120.501	142.340	80.003	19.994	103.277	20.325	3.953	0.524
121.000	142.581	80.006	19.995	103.280	20.322	4.181	0.544
121.500	142.782	80.004	19.994	103.282	20.324	4.020	0.484
122.001	143.053	80.003	19.994	103.281	20.328	3.735	0.457
122.501	143.338	80.000	19.995	103.278	20.325	3.960	0.514
123.001	143.623	80.003	19.995	103.274	20.326	3.901	0.563
123.501	143.822	80.003	19.995	103.273	20.326	3.908	0.527
124.000	144.126	80.002	19.995	103.273	20.324	3.995	0.493
124.501	144.369	80.004	19.994	103.277	20.326	3.921	0.525
125.001	144.628	80.000	19.994	103.282	20.325	3.943	0.525
125.500	144.859	80.003	19.995	103.286	20.324	4.040	0.496
126.000	145.111	80.002	19.996	103.286	20.326	3.902	0.486
126.501	145.371	80.002	19.994	103.283	20.323	4.102	0.498
127.002	145.579	80.002	19.994	103.281	20.325	3.943	0.490
127.502	145.873	80.003	19.995	103.280	20.324	4.057	0.485
128.001	146.147	80.001	19.994	103.277	20.327	3.822	0.535
128.500	146.382	80.003	19.995	103.276	20.327	3.850	0.538
129.000	146.674	80.003	19.993	103.273	20.326	3.911	0.518
129.501	146.884	80.001	19.995	103.268	20.325	3.969	0.515
130.001	147.133	80.003	19.994	103.268	20.322	4.193	0.481
130.500	147.406	80.005	19.995	103.270	20.324	4.038	0.490
131.000	147.619	80.003	19.994	103.274	20.326	3.876	0.504
131.500	147.879	80.002	19.995	103.277	20.324	4.029	0.480
132.000	148.170	80.003	19.994	103.279	20.321	4.206	0.512
132.500	148.396	80.004	19.994	103.277	20.321	4.234	0.534
133.000	148.721	80.002	19.995	103.272	20.327	3.824	0.534
133.500	148.946	80.003	19.995	103.267	20.324	4.025	0.550
134.000	149.198	80.003	19.994	103.263	20.324	4.006	0.513
134.500	149.486	80.001	19.994	103.261	20.327	3.839	0.509
135.000	149.685	80.003	19.995	103.260	20.325	3.956	0.513
135.500	149.965	80.004	19.996	103.261	20.330	3.647	0.483
136.000	150.243	80.002	19.995	103.260	20.327	3.809	0.519
136.500	150.479	80.004	19.995	103.259	20.327	3.835	0.536
137.001	150.715	80.004	19.995	103.257	20.328	3.753	0.493
137.501	150.993	80.003	19.995	103.257	20.326	3.885	0.493
138.001	151.247	80.002	19.994	103.256	20.324	4.014	0.523
138.501	151.506	80.004	19.996	103.255	20.329	3.691	0.523
139.001	151.733	80.004	19.995	103.255	20.328	3.727	0.500
139.501	152.022	80.003	19.994	103.254	20.326	3.898	0.501
140.000	152.299	80.002	19.994	103.254	20.326	3.913	0.541
140.501	152.555	80.006	19.994	103.253	20.326	3.861	0.550
141.001	152.823	80.004	19.994	103.254	20.327	3.805	0.529
141.500	153.065	80.003	19.995	103.253	20.329	3.662	0.517
142.000	153.312	80.004	19.995	103.253	20.327	3.813	0.499
142.500	153.546	80.005	19.995	103.253	20.327	3.805	0.485
143.000	153.796	80.003	19.996	103.252	20.331	3.526	0.483
143.501	154.042	80.004	19.994	103.252	20.329	3.710	0.490
144.001	154.312	80.003	19.995	103.252	20.331	3.574	0.506
144.501	154.531	80.004	19.995	103.251	20.331	3.581	0.503
145.001	154.853	80.003	19.995	103.252	20.326	3.859	0.516
145.501	155.051	80.005	19.996	103.252	20.329	3.706	0.530
146.001	155.310	80.004	19.995	103.252	20.325	3.969	0.488
146.500	155.582	80.001	19.996	103.252	20.324	4.012	0.494
147.000	155.797	80.000	19.995	103.253	20.326	3.878	0.509
147.500	156.108	80.002	19.996	103.252	20.326	3.908	0.506
148.000	156.329	80.002	19.995	103.252	20.330	3.635	0.529
148.500	156.611	80.001	19.996	103.251	20.327	3.796	0.518
149.000	156.868	80.003	19.996	103.250	20.326	3.883	0.521
149.500	157.142	80.003	19.996	103.250	20.324	4.047	0.535
150.000	157.338	80.001	19.995	103.251	20.327	3.814	0.500
150.500	157.602	80.004	19.995	103.250	20.332	3.466	0.465
151.000	157.866	80.002	19.996	103.252	20.326	3.872	0.494
151.500	158.155	80.004	19.996	103.251	20.328	3.719	0.540
152.000	158.379	80.005	19.996	103.252	20.329	3.650	0.533
152.500	158.657	80.001	19.996	103.252	20.328	3.721	0.507
153.001	158.911	80.001	19.995	103.252	20.328	3.730	0.517
153.501	159.149	80.001	19.996	103.251	20.326	3.859	0.512
154.000	159.409	80.000	19.996	103.252	20.330	3.645	0.495
154.500	159.676	80.002	19.997	103.251	20.329	3.658	0.512
155.001	159.892	80.002	19.996	103.251	20.330	3.602	0.505
155.501	160.180	80.001	19.995	103.251	20.326	3.879	0.494
156.001	160.431	80.000	19.996	103.251	20.330	3.598	0.522
156.501	160.688	80.002	19.997	103.250	20.329	3.667	0.523
157.001	160.886	80.003	19.997	103.251	20.328	3.779	0.481
157.500	161.202	80.005	19.995	103.251	20.331	3.553	0.484
158.000	161.435	80.003	19.996	103.251	20.330	3.589	0.532
158.500	161.706	80.002	19.995	103.251	20.330	3.622	0.527
159.001	161.923	80.000	19.995	103.251	20.329	3.686	0.496
159.501	162.179	80.007	19.994	103.251	20.330	3.615	0.480
160.000	162.455	79.998	19.996	103.252	20.327	3.823	0.502
160.500	162.665	80.004	19.995	103.252	20.330	3.587	0.509
161.000	162.945	80.002	19.997	103.250	20.330	3.596	0.488
161.500	163.189	80.004	19.996	103.248	20.329	3.674	0.507
162.000	163.455	80.003	19.996	103.246	20.327	3.790	0.517
162.500	163.670	80.003	19.995	103.243	20.328	3.777	0.496
163.000	163.925	79.997	19.997	103.243	20.324	4.017	0.476
163.501	164.196	80.003	19.996	103.244	20.325	3.926	0.498
164.001	164.496	80.001	19.995	103.244	20.329	3.708	0.548
164.500	164.722	80.005	19.997	103.246	20.331	3.522	0.548
165.000	165.027	80.001	19.997	103.247	20.330	3.645	0.529
165.500	165.234	80.011	19.997	103.247	20.330	3.630	0.522
166.000	165.486	80.005	19.996	103.247	20.325	3.989	0.486
166.501	165.786	80.006	19.996	103.248	20.327	3.812	0.505
167.001	166.021	80.008	19.996	103.248	20.328	3.777	0.543
167.500	166.255	80.003	19.997	103.247	20.332	3.477	0.502
168.000	166.508	80.006	19.996	103.247	20.331	3.566	0.478
168.501	166.769	80.006	19.996	103.246	20.330	3.628	0.500
169.001	167.022	79.999	19.997	103.243	20.327	3.831	0.514
169.500	167.273	80.013	19.997	103.243	20.328	3.754	0.509
170.000	167.535	80.005	19.997	103.245	20.327	3.803	0.508
170.500	167.769	80.005	19.997	103.243	20.329	3.706	0.504
171.000	168.010	80.004	19.995	103.246	20.329	3.674	0.486
171.501	168.260	80.008	19.993	103.249	20.328	3.773	0.483
172.001	168.525	80.005	19.996	103.248	20.329	3.717	0.502
172.500	168.741	80.003	19.996	103.247	20.328	3.756	0.498
