Sample ID:	C:\MCC\MCC Cal\Test\Vinyl_Covering_81A_MCC_30K_min_220302_R1.txt
Sample Weight (mg):	4.6
Heating Rate (C/s):	0.5
Combustor Temp (C):	900
N2 Flow Rate (cc/min):	80
O2 Flow Rate (cc/min):	20
Calibration File:	C:\MCC\MCC Cal\Coeff1 JN10440_30_210304.txt.txt
T Correction Coefficients:	0	1.024463	0
Time Shift (s):	14
*
Time (s)	Temperature (C)	N2 flow rate (cc/min)	O2 flow rate (cc/min)	Flow Rate (cc/min)	Oxygen (%)	HRR (W/g)	Heating rate (C/s)
-0.001	115.463	80.005	19.994	103.597	19.915	0.465	-0.002
0.499	115.522	80.005	19.995	103.598	19.920	0.183	0.024
1.000	115.441	80.017	19.998	103.601	19.918	0.271	0.016
1.500	115.449	80.007	19.998	103.607	19.918	0.311	-0.047
2.000	115.421	80.005	19.998	103.610	19.918	0.263	-0.046
2.500	115.455	80.004	19.997	103.610	19.916	0.417	-0.007
2.999	115.457	80.004	19.996	103.610	19.917	0.356	0.021
3.499	115.451	80.004	19.995	103.608	19.916	0.448	0.016
3.999	115.425	80.003	19.996	103.604	19.916	0.444	-0.018
4.499	115.426	80.004	19.995	103.603	19.917	0.342	-0.028
4.999	115.421	80.004	19.995	103.604	19.913	0.646	-0.015
5.499	115.399	80.004	19.995	103.605	19.916	0.413	-0.016
6.000	115.447	80.004	19.994	103.605	19.914	0.565	-0.001
6.500	115.441	80.005	19.995	103.603	19.918	0.267	0.034
7.000	115.455	80.005	19.993	103.604	19.915	0.490	0.025
7.499	115.439	80.004	19.994	103.606	19.916	0.452	0.003
7.999	115.467	80.005	19.994	103.610	19.918	0.286	0.004
8.499	115.442	80.004	19.995	103.617	19.915	0.535	0.007
9.000	115.487	80.004	19.994	103.621	19.918	0.288	0.012
9.500	115.479	80.005	19.995	103.623	19.915	0.515	0.029
9.999	115.443	80.005	19.994	103.624	19.918	0.267	-0.003
10.499	115.454	80.005	19.994	103.626	19.918	0.265	-0.034
10.999	115.439	80.004	19.993	103.625	19.914	0.604	-0.015
11.499	115.445	80.005	19.994	103.625	19.915	0.487	-0.007
12.000	115.442	80.003	19.995	103.626	19.915	0.475	-0.003
12.501	115.437	80.005	19.996	103.626	19.917	0.373	-0.002
13.000	115.406	80.003	19.995	103.627	19.916	0.420	-0.022
13.500	115.416	80.005	19.994	103.628	19.913	0.655	-0.028
14.000	115.427	80.006	19.993	103.629	19.913	0.622	0.000
14.499	115.378	80.003	19.994	103.629	19.917	0.385	-0.008
14.999	115.425	80.005	19.993	103.628	19.914	0.556	-0.020
15.499	115.434	80.004	19.993	103.623	19.912	0.710	0.027
15.999	115.424	80.005	19.994	103.624	19.913	0.662	0.027
16.499	115.438	80.004	19.992	103.624	19.910	0.870	0.002
16.999	115.417	80.004	19.994	103.627	19.910	0.832	-0.001
17.499	115.429	80.005	19.992	103.632	19.911	0.776	-0.008
17.999	115.416	80.005	19.993	103.641	19.907	1.057	-0.005
18.499	115.431	80.004	19.993	103.646	19.910	0.847	0.000
18.999	115.436	80.004	19.992	103.648	19.910	0.857	0.011
19.500	115.427	80.004	19.993	103.656	19.905	1.229	0.008
20.000	115.452	80.002	19.992	103.668	19.908	0.999	0.006
20.499	115.426	80.005	19.994	103.680	19.903	1.313	0.007
20.999	115.437	80.005	19.995	103.691	19.903	1.348	-0.008
21.499	115.435	80.004	19.994	103.705	19.902	1.410	-0.003
21.999	115.486	80.004	19.993	103.715	19.902	1.441	0.028
22.499	115.490	80.005	19.995	103.724	19.899	1.599	0.052
22.999	115.492	80.006	19.993	103.732	19.901	1.506	0.031
23.499	115.529	80.005	19.993	103.744	19.898	1.701	0.023
23.999	115.543	80.005	19.994	103.757	19.893	2.065	0.045
24.499	115.587	80.005	19.994	103.770	19.896	1.809	0.054
24.999	115.610	80.005	19.994	103.778	19.896	1.851	0.062
25.499	115.585	80.004	19.993	103.785	19.893	2.030	0.033
25.999	115.611	80.004	19.994	103.788	19.893	2.046	0.000
26.499	115.689	80.006	19.993	103.790	19.890	2.286	0.053
26.999	115.708	80.004	19.994	103.790	19.890	2.252	0.100
27.499	115.762	80.005	19.993	103.791	19.887	2.479	0.085
28.000	115.743	80.004	19.994	103.793	19.890	2.236	0.054
28.500	115.797	80.004	19.994	103.794	19.888	2.381	0.035
28.999	115.856	80.005	19.994	103.796	19.886	2.566	0.074
29.499	115.887	80.004	19.993	103.796	19.885	2.640	0.102
29.999	115.936	80.004	19.994	103.797	19.886	2.561	0.085
30.499	115.980	80.004	19.994	103.801	19.885	2.626	0.086
30.999	116.018	80.004	19.993	103.808	19.883	2.732	0.087
31.499	116.085	80.003	19.993	103.813	19.883	2.753	0.093
31.999	116.129	80.005	19.994	103.819	19.881	2.913	0.108
32.499	116.198	80.004	19.995	103.826	19.882	2.856	0.112
32.999	116.210	80.004	19.994	103.829	19.877	3.170	0.097
33.499	116.274	80.005	19.994	103.831	19.877	3.174	0.079
34.000	116.376	80.005	19.994	103.831	19.879	3.003	0.121
34.500	116.403	80.004	19.993	103.831	19.881	2.916	0.148
34.999	116.497	80.003	19.993	103.829	19.878	3.123	0.125
35.499	116.604	80.004	19.993	103.825	19.879	3.043	0.161
35.999	116.641	80.004	19.994	103.825	19.879	3.009	0.173
36.499	116.750	80.004	19.993	103.825	19.875	3.327	0.145
36.999	116.808	80.004	19.993	103.826	19.877	3.154	0.156
37.499	116.878	80.004	19.994	103.830	19.878	3.115	0.147
37.999	116.924	80.004	19.993	103.834	19.876	3.251	0.122
38.499	117.070	80.004	19.994	103.833	19.880	2.961	0.154
38.999	117.116	80.005	19.993	103.831	19.875	3.310	0.192
39.499	117.181	80.004	19.993	103.830	19.874	3.373	0.152
39.999	117.290	80.003	19.994	103.830	19.877	3.154	0.143
40.500	117.352	80.005	19.993	103.807	19.874	3.379	0.172
41.000	117.472	80.003	19.993	103.784	19.876	3.248	0.177
41.499	117.560	80.005	19.994	103.772	19.877	3.163	0.195
41.999	117.652	80.005	19.993	103.765	19.877	3.175	0.194
42.500	117.702	80.006	19.993	103.762	19.875	3.323	0.161
43.000	117.820	80.006	19.993	103.786	19.877	3.144	0.155
43.499	117.934	80.007	19.993	103.809	19.872	3.548	0.200
43.999	118.003	80.006	19.994	103.823	19.872	3.533	0.207
44.499	118.084	80.006	19.992	103.831	19.878	3.132	0.167
44.999	118.202	80.006	19.994	103.834	19.878	3.136	0.175
45.499	118.331	80.005	19.993	103.835	19.875	3.284	0.223
45.999	118.456	80.006	19.992	103.842	19.878	3.076	0.251
46.499	118.527	80.006	19.993	103.869	19.872	3.544	0.225
46.999	118.630	80.006	19.992	103.904	19.876	3.228	0.185
47.500	118.756	80.006	19.993	103.915	19.872	3.507	0.202
48.000	118.837	80.006	19.994	103.920	19.877	3.178	0.218
48.499	119.006	80.007	19.993	103.914	19.874	3.410	0.228
48.999	119.095	80.006	19.993	103.888	19.877	3.178	0.254
49.500	119.204	80.006	19.993	103.858	19.875	3.308	0.227
50.000	119.298	80.006	19.993	103.850	19.878	3.094	0.200
50.499	119.420	80.006	19.993	103.844	19.877	3.179	0.210
50.999	119.542	80.007	19.992	103.845	19.876	3.256	0.230
51.499	119.688	80.006	19.992	103.844	19.875	3.295	0.256
51.999	119.799	80.007	19.993	103.840	19.879	3.061	0.262
52.499	119.956	80.006	19.993	103.837	19.880	2.965	0.263
52.999	120.117	80.007	19.993	103.837	19.880	2.934	0.293
53.499	120.208	80.005	19.992	103.835	19.878	3.142	0.285
54.000	120.296	80.006	19.993	103.836	19.876	3.217	0.216
54.500	120.465	80.006	19.993	103.836	19.882	2.857	0.218
55.000	120.592	80.007	19.993	103.837	19.879	3.028	0.276
55.500	120.704	80.006	19.992	103.835	19.876	3.246	0.267
55.999	120.853	80.006	19.993	103.828	19.879	3.036	0.250
56.499	120.968	80.005	19.993	103.823	19.879	3.038	0.262
56.999	121.110	80.005	19.993	103.822	19.878	3.077	0.260
57.499	121.249	80.006	19.992	103.821	19.879	3.013	0.269
57.999	121.385	80.006	19.994	103.822	19.881	2.888	0.279
58.499	121.537	80.005	19.994	103.829	19.877	3.160	0.281
58.999	121.690	80.007	19.994	103.835	19.877	3.197	0.296
59.499	121.827	80.004	19.993	103.837	19.875	3.349	0.297
60.000	121.937	80.005	19.993	103.840	19.873	3.474	0.269
60.500	122.086	80.006	19.994	103.852	19.875	3.327	0.253
60.999	122.190	80.006	19.993	103.859	19.875	3.327	0.256
61.499	122.369	80.005	19.994	103.862	19.874	3.408	0.268
61.999	122.531	80.006	19.994	103.867	19.874	3.414	0.312
62.500	122.668	80.007	19.993	103.869	19.870	3.661	0.320
63.000	122.832	80.005	19.993	103.858	19.873	3.435	0.300
63.499	122.976	80.005	19.992	103.849	19.871	3.578	0.304
63.999	123.131	80.005	19.994	103.847	19.869	3.763	0.304
64.500	123.241	80.006	19.993	103.843	19.872	3.534	0.282
65.000	123.436	80.004	19.994	103.841	19.874	3.418	0.285
65.499	123.583	80.005	19.994	103.843	19.872	3.543	0.324
65.999	123.749	80.006	19.994	103.845	19.871	3.613	0.328
66.499	123.909	80.005	19.994	103.843	19.867	3.854	0.319
66.999	124.049	80.005	19.994	103.845	19.871	3.622	0.313
67.499	124.198	80.005	19.994	103.848	19.871	3.576	0.295
67.999	124.373	80.005	19.994	103.850	19.870	3.651	0.306
68.499	124.539	80.007	19.994	103.855	19.871	3.576	0.332
68.999	124.665	80.006	19.995	103.860	19.868	3.825	0.317
69.499	124.821	80.006	19.993	103.863	19.873	3.487	0.287
69.999	124.997	80.007	19.994	103.864	19.872	3.530	0.307
70.499	125.182	80.007	19.994	103.864	19.870	3.646	0.346
70.999	125.330	80.005	19.993	103.864	19.869	3.777	0.347
71.499	125.496	80.006	19.994	103.860	19.869	3.723	0.324
72.000	125.690	80.006	19.993	103.857	19.871	3.584	0.338
72.500	125.845	80.006	19.994	103.856	19.865	4.033	0.355
72.999	126.017	80.008	19.993	103.858	19.868	3.844	0.338
73.499	126.171	80.006	19.994	103.860	19.870	3.638	0.326
74.000	126.317	80.008	19.992	103.864	19.869	3.771	0.312
74.500	126.531	80.007	19.992	103.867	19.869	3.711	0.330
74.999	126.639	80.009	19.993	103.864	19.871	3.626	0.341
75.499	126.871	80.008	19.993	103.863	19.870	3.663	0.331
75.999	127.032	80.008	19.993	103.863	19.874	3.380	0.367
76.499	127.172	80.007	19.993	103.863	19.872	3.495	0.347
76.999	127.331	80.007	19.993	103.863	19.869	3.746	0.300
77.499	127.517	80.007	19.993	103.867	19.871	3.621	0.322
77.999	127.707	80.008	19.994	103.868	19.873	3.490	0.361
78.499	127.884	80.007	19.993	103.865	19.870	3.665	0.372
78.999	128.063	80.006	19.995	103.863	19.871	3.586	0.361
79.499	128.231	80.007	19.993	103.861	19.870	3.649	0.352
79.999	128.408	80.005	19.992	103.861	19.873	3.468	0.346
80.499	128.605	80.007	19.993	103.862	19.870	3.705	0.359
80.999	128.756	80.006	19.995	103.864	19.870	3.682	0.361
81.499	128.972	80.006	19.995	103.868	19.871	3.630	0.358
81.999	129.216	80.006	19.995	103.869	19.865	4.023	0.414
82.499	129.366	80.005	19.993	103.869	19.864	4.083	0.427
82.999	129.528	80.005	19.993	103.868	19.863	4.145	0.353
83.499	129.716	80.005	19.993	103.867	19.868	3.844	0.331
83.999	129.924	80.004	19.993	103.867	19.867	3.862	0.373
84.499	130.115	80.005	19.994	103.866	19.865	4.058	0.397
84.999	130.301	80.004	19.995	103.867	19.866	3.956	0.387
85.499	130.520	80.004	19.994	103.868	19.865	4.014	0.391
85.999	130.691	80.005	19.994	103.868	19.864	4.070	0.398
86.499	130.883	80.004	19.993	103.868	19.866	3.960	0.376
86.999	131.069	80.005	19.993	103.868	19.865	3.993	0.370
87.499	131.260	80.004	19.995	103.868	19.865	4.033	0.378
87.999	131.463	80.005	19.995	103.867	19.869	3.767	0.386
88.500	131.683	80.004	19.994	103.867	19.864	4.085	0.408
89.001	131.850	80.003	19.995	103.867	19.867	3.860	0.405
89.500	132.054	80.003	19.995	103.867	19.865	4.014	0.379
89.999	132.277	80.004	19.994	103.867	19.868	3.781	0.399
90.499	132.497	80.004	19.995	103.868	19.864	4.097	0.435
90.999	132.687	80.004	19.995	103.869	19.862	4.230	0.426
91.500	132.887	80.005	19.994	103.869	19.867	3.873	0.401
92.000	133.093	80.003	19.995	103.869	19.867	3.881	0.398
92.499	133.277	80.004	19.994	103.869	19.871	3.623	0.398
92.999	133.462	80.003	19.995	103.869	19.869	3.746	0.379
93.499	133.663	80.004	19.993	103.869	19.867	3.848	0.377
93.999	133.876	80.004	19.995	103.869	19.866	3.952	0.400
94.499	134.071	80.003	19.994	103.870	19.865	4.022	0.411
94.999	134.224	80.004	19.995	103.870	19.868	3.806	0.378
95.499	134.476	80.003	19.994	103.871	19.871	3.621	0.377
96.000	134.679	80.003	19.994	103.871	19.866	3.926	0.430
96.500	134.839	80.003	19.995	103.873	19.869	3.773	0.409
96.999	135.108	80.004	19.995	103.873	19.868	3.847	0.396
97.499	135.299	80.005	19.995	103.876	19.866	3.978	0.445
97.999	135.544	80.005	19.993	103.876	19.862	4.211	0.449
98.499	135.746	80.003	19.994	103.875	19.859	4.421	0.442
98.999	135.943	80.004	19.994	103.875	19.862	4.217	0.422
99.500	136.192	80.004	19.993	103.874	19.866	3.922	0.422
100.001	136.353	80.004	19.995	103.871	19.865	4.057	0.428
100.500	136.582	80.004	19.993	103.871	19.866	3.951	0.400
100.999	136.800	80.005	19.994	103.871	19.863	4.194	0.418
101.499	137.037	80.003	19.994	103.873	19.864	4.128	0.451
101.999	137.239	80.006	19.994	103.874	19.862	4.209	0.447
102.499	137.497	80.003	19.994	103.874	19.860	4.373	0.449
103.000	137.665	80.005	19.994	103.876	19.859	4.442	0.443
103.500	137.882	80.005	19.993	103.878	19.858	4.494	0.406
103.999	138.119	80.006	19.994	103.878	19.860	4.394	0.419
104.499	138.350	80.005	19.993	103.878	19.861	4.303	0.461
104.999	138.560	80.005	19.993	103.878	19.861	4.313	0.454
105.499	138.775	80.005	19.993	103.877	19.862	4.230	0.432
106.000	139.044	80.005	19.993	103.880	19.862	4.246	0.454
106.500	139.261	80.005	19.993	103.882	19.861	4.315	0.485
106.999	139.469	80.005	19.993	103.882	19.861	4.338	0.456
107.499	139.681	80.005	19.993	103.885	19.859	4.419	0.423
107.999	139.838	80.003	19.993	103.889	19.861	4.315	0.395
108.499	140.108	80.006	19.994	103.885	19.862	4.221	0.398
108.999	140.383	80.004	19.993	103.882	19.861	4.296	0.486
109.499	140.611	80.005	19.992	103.883	19.861	4.307	0.524
109.999	140.880	80.005	19.993	103.882	19.859	4.469	0.500
110.500	141.077	80.005	19.993	103.879	19.859	4.439	0.481
111.000	141.341	80.005	19.993	103.883	19.860	4.384	0.463
111.499	141.528	80.004	19.994	103.886	19.862	4.217	0.456
112.000	141.727	80.005	19.994	103.885	19.859	4.440	0.419
112.500	141.956	80.004	19.993	103.888	19.863	4.166	0.407
113.000	142.173	80.004	19.994	103.888	19.858	4.509	0.437
113.500	142.455	80.005	19.994	103.888	19.862	4.241	0.473
113.999	142.706	80.004	19.994	103.888	19.857	4.569	0.516
114.499	142.885	80.003	19.995	103.889	19.862	4.255	0.481
114.999	143.166	80.004	19.994	103.886	19.860	4.361	0.445
115.499	143.395	80.006	19.994	103.884	19.861	4.296	0.485
115.999	143.624	80.004	19.995	103.884	19.858	4.488	0.484
116.499	143.840	80.005	19.995	103.886	19.858	4.540	0.452
117.000	144.071	80.005	19.992	103.889	19.858	4.509	0.446
117.500	144.314	80.003	19.994	103.892	19.858	4.490	0.460
118.000	144.566	80.005	19.994	103.894	19.858	4.542	0.485
118.501	144.796	80.004	19.993	103.892	19.855	4.715	0.489
119.000	145.051	80.004	19.994	103.889	19.859	4.419	0.483
119.500	145.272	80.004	19.992	103.885	19.858	4.550	0.480
120.000	145.533	80.004	19.994	103.888	19.857	4.600	0.479
120.499	145.763	80.005	19.994	103.891	19.862	4.208	0.486
121.000	146.008	80.005	19.993	103.892	19.856	4.648	0.483
121.500	146.284	80.005	19.993	103.890	19.856	4.681	0.498
121.999	146.498	80.005	19.993	103.888	19.855	4.736	0.506
122.499	146.755	80.006	19.993	103.883	19.851	4.977	0.481
122.999	146.983	80.005	19.993	103.878	19.853	4.866	0.478
123.499	147.186	80.005	19.994	103.876	19.852	4.908	0.458
123.999	147.452	80.006	19.993	103.876	19.853	4.895	0.450
124.499	147.735	80.006	19.993	103.876	19.856	4.692	0.509
124.999	147.945	80.005	19.994	103.876	19.852	4.964	0.521
125.499	148.213	80.004	19.993	103.879	19.854	4.765	0.486
126.000	148.429	80.006	19.995	103.884	19.853	4.892	0.481
126.500	148.681	80.005	19.994	103.886	19.853	4.902	0.476
126.999	148.963	80.006	19.994	103.886	19.851	4.999	0.501
127.500	149.220	80.006	19.993	103.883	19.851	4.977	0.537
128.000	149.447	80.006	19.994	103.881	19.852	4.974	0.512
128.500	149.685	80.005	19.993	103.876	19.851	5.020	0.474
129.000	149.930	80.007	19.993	103.873	19.852	4.914	0.473
129.500	150.193	80.007	19.993	103.873	19.852	4.917	0.495
130.000	150.465	80.007	19.993	103.874	19.853	4.869	0.522
130.500	150.700	80.006	19.993	103.873	19.852	4.954	0.521
131.000	150.939	80.007	19.992	103.873	19.854	4.790	0.491
131.500	151.170	80.006	19.993	103.874	19.854	4.767	0.472
132.000	151.448	80.008	19.993	103.874	19.851	5.029	0.490
132.500	151.678	80.006	19.993	103.874	19.854	4.771	0.508
133.000	151.902	80.007	19.993	103.873	19.852	4.916	0.481
133.500	152.161	80.007	19.993	103.875	19.850	5.077	0.468
134.000	152.446	80.008	19.993	103.875	19.854	4.804	0.514
134.500	152.675	80.007	19.993	103.877	19.848	5.199	0.529
135.000	152.949	80.006	19.993	103.878	19.853	4.898	0.509
135.500	153.203	80.006	19.992	103.878	19.849	5.166	0.516
136.000	153.460	80.007	19.993	103.876	19.846	5.347	0.519
136.500	153.662	80.006	19.994	103.875	19.845	5.449	0.485
137.000	153.948	80.006	19.993	103.871	19.848	5.199	0.473
137.500	154.134	80.005	19.993	103.872	19.847	5.276	0.480
138.000	154.461	80.006	19.993	103.875	19.846	5.330	0.493
138.500	154.666	80.006	19.994	103.875	19.849	5.124	0.522
139.000	154.910	80.006	19.993	103.875	19.847	5.297	0.491
139.500	155.148	80.005	19.993	103.875	19.850	5.072	0.466
140.000	155.403	80.005	19.992	103.872	19.846	5.368	0.488
140.500	155.639	80.004	19.993	103.869	19.847	5.257	0.492
141.000	155.911	80.006	19.996	103.869	19.843	5.546	0.499
141.500	156.163	80.006	19.994	103.870	19.842	5.652	0.516
142.000	156.403	80.004	19.994	103.870	19.844	5.524	0.508
142.501	156.689	80.006	19.995	103.870	19.849	5.183	0.509
143.000	156.966	80.005	19.994	103.870	19.845	5.415	0.545
143.499	157.218	80.005	19.994	103.870	19.844	5.530	0.546
143.999	157.458	80.005	19.993	103.870	19.844	5.501	0.511
144.499	157.699	80.006	19.994	103.870	19.846	5.395	0.486
144.999	157.983	80.006	19.994	103.870	19.842	5.657	0.503
145.500	158.226	80.006	19.995	103.870	19.842	5.619	0.526
146.000	158.504	80.006	19.993	103.869	19.843	5.559	0.523
146.499	158.705	80.005	19.993	103.869	19.844	5.468	0.499
146.999	158.986	80.006	19.992	103.869	19.846	5.378	0.481
147.499	159.247	80.005	19.993	103.868	19.844	5.511	0.513
147.999	159.517	80.005	19.993	103.867	19.845	5.403	0.536
148.499	159.718	80.006	19.993	103.867	19.844	5.484	0.501
148.999	160.013	80.006	19.993	103.867	19.846	5.372	0.484
149.500	160.250	80.006	19.993	103.868	19.845	5.464	0.514
150.000	160.520	80.005	19.993	103.869	19.843	5.588	0.519
150.499	160.753	80.006	19.993	103.869	19.840	5.782	0.505
150.999	161.036	80.006	19.993	103.869	19.844	5.486	0.510
151.499	161.315	80.006	19.994	103.869	19.843	5.548	0.539
151.999	161.539	80.006	19.993	103.869	19.840	5.819	0.532
152.499	161.855	80.007	19.993	103.869	19.841	5.740	0.521
152.999	162.053	80.007	19.993	103.869	19.841	5.748	0.527
153.499	162.304	80.006	19.993	103.869	19.843	5.565	0.482
153.999	162.605	80.008	19.993	103.868	19.840	5.794	0.501
154.499	162.833	80.007	19.993	103.868	19.837	6.002	0.540
154.999	163.077	80.006	19.993	103.869	19.837	5.996	0.500
155.499	163.304	80.007	19.993	103.867	19.838	5.942	0.472
156.000	163.618	80.006	19.993	103.867	19.839	5.821	0.506
156.500	163.889	80.008	19.993	103.868	19.837	6.027	0.563
156.999	164.140	80.007	19.993	103.868	19.837	5.975	0.553
157.499	164.347	80.006	19.994	103.868	19.833	6.293	0.490
157.999	164.612	80.007	19.994	103.869	19.834	6.173	0.465
158.499	164.888	80.007	19.994	103.868	19.834	6.200	0.506
158.999	165.205	80.006	19.994	103.867	19.832	6.320	0.567
159.499	165.445	80.006	19.994	103.865	19.836	6.058	0.575
159.999	165.709	80.007	19.994	103.863	19.833	6.273	0.531
160.499	165.955	80.006	19.994	103.863	19.829	6.528	0.507
160.999	166.228	80.005	19.995	103.865	19.828	6.635	0.514
161.499	166.509	80.005	19.993	103.866	19.830	6.483	0.536
161.999	166.735	80.006	19.994	103.869	19.832	6.323	0.531
162.499	166.984	80.007	19.994	103.869	19.831	6.382	0.492
162.999	167.252	80.006	19.994	103.869	19.827	6.686	0.496
163.499	167.513	80.005	19.993	103.869	19.831	6.411	0.523
163.999	167.761	80.005	19.993	103.869	19.827	6.702	0.519
164.499	168.012	80.005	19.993	103.869	19.827	6.704	0.504
164.999	168.243	80.003	19.994	103.869	19.824	6.879	0.490
165.499	168.526	80.004	19.994	103.867	19.826	6.770	0.498
165.999	168.778	80.005	19.993	103.868	19.826	6.751	0.524
166.499	169.030	80.004	19.994	103.865	19.825	6.874	0.519
166.999	169.266	80.005	19.993	103.860	19.824	6.900	0.496
167.499	169.570	80.004	19.995	103.857	19.826	6.745	0.514
167.999	169.801	80.004	19.993	103.859	19.827	6.701	0.538
168.499	170.082	80.003	19.993	103.859	19.824	6.905	0.523
169.000	170.353	80.003	19.993	103.860	19.823	6.969	0.532
169.500	170.581	80.003	19.995	103.862	19.823	6.951	0.525
170.000	170.832	80.005	19.994	103.862	19.826	6.761	0.489
170.499	171.109	80.004	19.994	103.859	19.825	6.849	0.504
170.999	171.345	80.004	19.995	103.857	19.822	7.047	0.521
171.499	171.595	80.003	19.994	103.857	19.819	7.297	0.499
172.000	171.856	80.003	19.994	103.856	19.819	7.263	0.498
172.500	172.084	80.005	19.994	103.854	19.817	7.402	0.500
