Sample ID:	C:\MCC\MCC Cal\Test\Countertop_Plastic_LaminateB_MCC_30K_min_211215_R1.txt
Sample Weight (mg):	4.52
Heating Rate (C/s):	0.5
Combustor Temp (C):	900
N2 Flow Rate (cc/min):	80
O2 Flow Rate (cc/min):	20
Calibration File:	C:\MCC\MCC Cal\Coeff1 JN10440_30_210304.txt.txt
T Correction Coefficients:	0	1.024463	0
Time Shift (s):	14
*
Time (s)	Temperature (C)	N2 flow rate (cc/min)	O2 flow rate (cc/min)	Flow Rate (cc/min)	Oxygen (%)	HRR (W/g)	Heating rate (C/s)
0.000	109.723	80.003	19.996	102.990	20.388	-0.130	0.050
0.499	109.687	80.005	19.998	102.992	20.390	-0.283	-0.018
1.000	109.651	80.002	19.995	103.000	20.387	-0.070	-0.068
1.500	109.733	80.000	19.995	103.001	20.390	-0.293	-0.013
2.000	109.719	80.000	19.997	102.996	20.388	-0.126	0.057
2.500	109.659	80.003	19.993	102.994	20.388	-0.163	-0.003
3.000	109.757	80.002	19.996	102.992	20.391	-0.368	-0.018
3.500	109.669	80.007	19.994	102.990	20.387	-0.097	0.024
4.000	109.756	80.004	19.996	102.990	20.392	-0.457	0.005
4.500	109.696	80.008	19.995	102.991	20.393	-0.506	0.013
5.000	109.712	80.004	19.995	102.992	20.390	-0.267	-0.008
5.500	109.691	80.004	19.994	102.993	20.392	-0.411	-0.025
6.000	109.697	80.004	19.994	102.991	20.393	-0.531	-0.011
6.500	109.692	80.002	19.995	102.990	20.395	-0.637	-0.007
7.000	109.730	80.003	19.995	102.991	20.387	-0.058	0.017
7.500	109.693	80.003	19.993	102.992	20.391	-0.376	0.017
8.000	109.696	79.999	19.996	102.994	20.390	-0.254	-0.017
8.500	109.729	80.002	19.993	102.995	20.391	-0.328	0.002
9.000	109.684	80.003	19.995	102.996	20.389	-0.203	0.012
9.499	109.692	80.003	19.995	103.001	20.392	-0.413	-0.025
10.000	109.723	80.003	19.992	103.007	20.392	-0.440	0.000
10.500	109.733	80.003	19.992	103.010	20.385	0.093	0.040
10.999	109.713	80.003	19.994	103.013	20.389	-0.229	0.016
11.499	109.722	80.004	19.996	103.014	20.389	-0.238	-0.010
11.999	109.680	80.001	19.995	103.013	20.387	-0.093	-0.022
12.499	109.707	80.005	19.994	103.012	20.386	0.019	-0.024
13.000	109.691	80.002	19.994	103.013	20.389	-0.176	-0.002
13.500	109.693	80.004	19.994	103.016	20.385	0.072	-0.002
13.999	109.708	80.004	19.993	103.018	20.384	0.138	0.001
14.500	109.750	80.005	19.993	103.016	20.386	-0.023	0.037
15.001	109.714	80.003	19.994	103.015	20.386	0.031	0.031
15.500	109.724	80.012	19.996	103.014	20.383	0.233	-0.010
16.000	109.737	80.003	19.995	103.013	20.383	0.211	-0.001
16.500	109.721	79.998	19.996	103.017	20.386	0.027	0.010
17.000	109.765	80.007	19.993	103.024	20.384	0.136	0.012
17.500	109.772	80.000	19.993	103.031	20.383	0.202	0.039
18.000	109.764	79.999	19.996	103.040	20.382	0.283	0.025
18.500	109.759	80.005	19.995	103.048	20.381	0.372	-0.007
19.000	109.813	80.002	19.996	103.051	20.379	0.506	0.018
19.500	109.790	80.004	19.994	103.054	20.379	0.514	0.040
20.000	109.853	80.004	19.996	103.054	20.382	0.256	0.036
20.500	109.796	80.002	19.996	103.053	20.382	0.281	0.023
21.000	109.861	80.003	19.994	103.053	20.378	0.543	0.007
21.500	109.879	80.003	19.997	103.054	20.379	0.471	0.045
22.000	109.862	80.006	19.998	103.057	20.379	0.475	0.042
22.500	109.882	80.006	19.996	103.063	20.380	0.431	0.003
23.000	109.928	80.005	19.995	103.068	20.375	0.799	0.035
23.500	109.908	80.008	19.996	103.074	20.374	0.855	0.046
24.000	109.957	80.002	19.997	103.075	20.372	1.020	0.027
24.501	109.923	80.006	19.994	103.076	20.373	0.896	0.022
25.000	109.954	80.005	19.994	103.079	20.374	0.836	0.006
25.499	109.968	80.007	19.995	103.082	20.373	0.943	0.021
25.999	109.983	80.004	19.996	103.089	20.371	1.089	0.037
26.500	110.038	80.005	19.994	103.103	20.372	0.982	0.049
27.000	110.038	80.005	19.995	103.115	20.373	0.943	0.063
27.501	110.060	80.008	19.995	103.122	20.367	1.356	0.039
28.000	110.040	80.006	19.996	103.128	20.368	1.292	0.012
28.500	110.105	80.006	19.996	103.134	20.368	1.259	0.023
29.000	110.145	80.007	19.995	103.142	20.365	1.492	0.075
29.499	110.180	80.004	19.996	103.151	20.364	1.587	0.090
29.999	110.229	80.006	19.996	103.158	20.368	1.269	0.080
30.499	110.253	80.006	19.995	103.163	20.366	1.457	0.079
30.999	110.244	80.005	19.995	103.158	20.366	1.461	0.044
31.500	110.324	80.006	19.993	103.151	20.368	1.271	0.043
32.000	110.345	80.003	19.994	103.145	20.366	1.397	0.086
32.499	110.371	80.003	19.996	103.140	20.367	1.347	0.074
32.999	110.447	80.003	19.994	103.136	20.368	1.262	0.074
33.500	110.454	80.004	19.993	103.136	20.362	1.708	0.092
34.001	110.557	80.001	19.995	103.136	20.364	1.557	0.097
34.500	110.555	80.004	19.999	103.135	20.362	1.689	0.106
35.000	110.591	80.002	20.002	103.141	20.362	1.728	0.067
35.500	110.680	80.001	19.996	103.148	20.360	1.829	0.079
35.999	110.743	80.006	19.996	103.156	20.358	2.031	0.138
36.499	110.767	80.003	19.994	103.166	20.362	1.704	0.120
36.999	110.841	80.010	19.994	103.176	20.357	2.056	0.093
37.499	110.887	79.994	19.998	103.181	20.356	2.120	0.109
37.999	110.896	79.998	19.994	103.185	20.354	2.270	0.088
38.499	111.014	80.007	19.996	103.187	20.357	2.054	0.091
39.000	111.060	80.008	19.993	103.184	20.356	2.147	0.145
39.500	111.121	80.002	19.995	103.187	20.355	2.186	0.136
39.999	111.207	80.006	19.995	103.185	20.357	2.079	0.127
40.500	111.222	80.004	19.995	103.186	20.355	2.223	0.124
41.000	111.348	80.006	19.998	103.184	20.356	2.122	0.121
41.499	111.420	80.000	19.998	103.188	20.356	2.167	0.169
42.000	111.502	80.007	19.993	103.189	20.350	2.532	0.176
42.500	111.526	80.001	19.995	103.194	20.350	2.598	0.130
42.999	111.664	80.004	19.995	103.200	20.350	2.550	0.134
43.499	111.722	80.003	19.994	103.207	20.349	2.624	0.179
44.000	111.781	80.001	19.994	103.211	20.348	2.707	0.157
44.500	111.867	80.002	19.993	103.213	20.350	2.540	0.131
45.000	111.959	80.002	19.994	103.218	20.350	2.554	0.161
45.500	112.066	80.003	19.995	103.224	20.350	2.544	0.188
45.999	112.152	80.011	19.991	103.226	20.349	2.655	0.196
46.499	112.224	80.010	19.993	103.232	20.351	2.470	0.175
46.999	112.326	80.011	19.995	103.235	20.349	2.660	0.166
47.499	112.402	80.002	19.996	103.231	20.347	2.763	0.176
47.999	112.521	80.013	19.994	103.230	20.346	2.874	0.187
48.499	112.594	80.000	19.996	103.240	20.347	2.765	0.193
48.999	112.676	79.991	19.998	103.243	20.345	2.889	0.173
49.499	112.789	80.003	19.996	103.244	20.345	2.895	0.175
49.999	112.895	80.009	19.998	103.246	20.344	3.008	0.207
50.499	113.039	80.011	19.994	103.243	20.345	2.957	0.235
50.999	113.092	79.996	19.997	103.241	20.344	3.008	0.224
51.499	113.212	79.994	19.996	103.239	20.345	2.938	0.185
51.999	113.336	80.010	19.994	103.242	20.346	2.861	0.208
52.499	113.440	80.010	19.991	103.247	20.341	3.224	0.236
52.999	113.540	79.991	19.999	103.254	20.341	3.207	0.216
53.499	113.658	80.008	19.996	103.251	20.342	3.125	0.211
53.999	113.796	80.007	19.996	103.258	20.340	3.259	0.237
54.499	113.914	80.014	19.994	103.264	20.340	3.250	0.256
54.999	114.041	79.992	19.995	103.265	20.342	3.151	0.250
55.499	114.165	80.011	19.995	103.261	20.340	3.296	0.248
55.999	114.282	80.008	19.994	103.265	20.339	3.337	0.246
56.499	114.411	80.002	19.994	103.261	20.338	3.448	0.243
57.000	114.544	80.008	19.995	103.258	20.340	3.296	0.254
57.500	114.670	79.988	19.995	103.255	20.339	3.352	0.260
57.999	114.753	80.012	19.993	103.256	20.337	3.475	0.234
58.499	114.934	79.996	19.996	103.254	20.337	3.512	0.237
58.999	115.024	80.003	19.994	103.252	20.338	3.459	0.267
59.499	115.164	80.003	19.995	103.251	20.339	3.335	0.250
59.999	115.303	80.004	19.994	103.253	20.340	3.300	0.255
60.499	115.440	80.002	19.995	103.254	20.341	3.197	0.278
60.999	115.571	80.000	19.995	103.254	20.340	3.257	0.272
61.500	115.699	80.001	19.996	103.257	20.338	3.395	0.263
62.000	115.854	80.002	19.994	103.258	20.340	3.253	0.271
62.499	116.010	80.005	19.992	103.263	20.336	3.543	0.297
62.999	116.084	79.990	19.995	103.273	20.338	3.401	0.271
63.499	116.279	80.006	19.994	103.278	20.336	3.561	0.249
64.000	116.476	80.002	19.993	103.281	20.338	3.392	0.331
64.500	116.519	80.017	19.995	103.287	20.335	3.628	0.316
65.000	116.718	80.005	19.993	103.288	20.339	3.325	0.241
65.500	116.900	80.014	19.993	103.286	20.337	3.518	0.312
66.000	116.995	80.001	19.995	103.286	20.337	3.486	0.329
66.501	117.205	79.987	19.996	103.285	20.335	3.657	0.291
67.000	117.312	79.997	19.995	103.282	20.335	3.657	0.311
67.499	117.474	80.008	19.994	103.281	20.334	3.723	0.293
67.999	117.666	79.997	19.994	103.281	20.337	3.500	0.312
68.500	117.821	80.001	19.994	103.282	20.337	3.520	0.350
69.000	117.982	79.997	19.994	103.287	20.337	3.498	0.332
69.500	118.129	80.003	19.993	103.290	20.336	3.545	0.312
70.000	118.353	79.999	19.996	103.289	20.337	3.510	0.339
70.499	118.422	79.993	19.996	103.287	20.337	3.502	0.332
71.000	118.622	79.989	19.994	103.287	20.336	3.543	0.281
71.500	118.812	80.002	19.995	103.286	20.333	3.762	0.330
71.999	118.967	80.001	19.995	103.284	20.336	3.547	0.368
72.499	119.144	80.005	19.995	103.284	20.333	3.753	0.339
72.999	119.312	80.000	19.995	103.286	20.333	3.782	0.338
73.500	119.496	80.001	19.994	103.287	20.333	3.759	0.348
74.000	119.685	80.007	19.993	103.287	20.334	3.691	0.363
74.499	119.852	80.004	19.996	103.290	20.331	3.899	0.365
74.999	120.014	80.006	19.993	103.292	20.335	3.667	0.342
75.499	120.206	80.006	19.996	103.290	20.334	3.710	0.341
75.999	120.391	79.998	19.995	103.289	20.335	3.663	0.366
76.499	120.583	80.004	19.995	103.285	20.329	4.075	0.377
77.000	120.739	80.002	19.995	103.284	20.332	3.848	0.363
77.501	120.955	80.003	19.995	103.284	20.333	3.805	0.360
78.000	121.134	80.003	19.994	103.284	20.332	3.881	0.383
78.500	121.286	80.003	19.994	103.285	20.331	3.904	0.363
79.001	121.459	80.003	19.993	103.287	20.335	3.632	0.328
79.500	121.747	80.003	19.996	103.286	20.332	3.856	0.393
79.999	121.924	80.005	19.994	103.284	20.330	3.961	0.463
80.499	122.066	80.004	19.994	103.284	20.334	3.743	0.392
80.999	122.258	80.002	19.995	103.284	20.332	3.838	0.327
81.499	122.448	80.003	19.996	103.285	20.332	3.858	0.358
81.999	122.663	80.004	19.997	103.286	20.331	3.935	0.393
82.499	122.840	80.007	19.995	103.287	20.331	3.914	0.399
82.999	123.081	80.006	19.995	103.288	20.335	3.648	0.406
83.500	123.250	80.002	19.995	103.288	20.331	3.900	0.414
84.001	123.460	80.004	19.994	103.289	20.334	3.712	0.394
84.501	123.644	80.004	19.995	103.289	20.333	3.747	0.387
85.001	123.853	80.003	19.995	103.290	20.331	3.959	0.394
85.500	124.065	79.999	19.995	103.291	20.334	3.741	0.407
86.000	124.232	80.003	19.994	103.291	20.333	3.778	0.400
86.500	124.453	80.003	19.994	103.291	20.336	3.543	0.384
86.999	124.642	80.007	19.994	103.290	20.335	3.613	0.399
87.499	124.874	80.003	19.995	103.288	20.333	3.801	0.416
87.999	125.044	80.005	19.993	103.287	20.333	3.768	0.412
88.499	125.293	80.005	19.994	103.287	20.333	3.786	0.410
88.999	125.468	80.004	19.994	103.287	20.334	3.700	0.421
89.499	125.682	80.004	19.995	103.288	20.335	3.640	0.407
89.999	125.903	80.005	19.996	103.288	20.331	3.929	0.412
90.499	126.109	80.004	19.995	103.290	20.335	3.658	0.431
90.999	126.325	80.003	19.995	103.290	20.330	4.003	0.425
91.499	126.526	80.009	19.995	103.289	20.328	4.151	0.420
92.000	126.746	80.018	19.993	103.289	20.328	4.133	0.419
92.501	126.960	80.005	19.994	103.291	20.330	4.029	0.427
93.000	127.170	80.005	19.994	103.290	20.328	4.104	0.429
93.499	127.400	80.004	19.996	103.290	20.332	3.862	0.432
94.000	127.604	80.005	19.994	103.290	20.330	4.003	0.437
94.501	127.827	80.002	19.995	103.290	20.329	4.091	0.431
95.000	128.080	80.005	19.994	103.288	20.335	3.644	0.452
95.500	128.273	80.005	19.993	103.289	20.331	3.937	0.461
96.000	128.476	80.002	19.995	103.290	20.330	4.011	0.421
96.499	128.724	80.006	19.995	103.291	20.328	4.135	0.423
96.999	128.950	80.005	19.993	103.291	20.328	4.112	0.462
97.499	129.130	80.005	19.994	103.291	20.326	4.260	0.440
97.999	129.386	80.005	19.995	103.290	20.329	4.048	0.421
98.499	129.601	80.006	19.994	103.289	20.331	3.904	0.453
98.999	129.827	80.004	19.995	103.289	20.331	3.889	0.456
99.500	130.038	80.006	19.994	103.289	20.329	4.075	0.439
100.001	130.302	80.003	19.994	103.289	20.331	3.945	0.456
100.500	130.505	80.005	19.994	103.288	20.331	3.924	0.471
100.999	130.711	80.006	19.994	103.287	20.331	3.918	0.438
101.499	130.931	80.006	19.994	103.287	20.329	4.081	0.418
101.999	131.161	80.006	19.996	103.287	20.334	3.743	0.438
102.499	131.368	80.008	19.994	103.287	20.331	3.899	0.444
102.999	131.633	80.008	19.994	103.289	20.333	3.796	0.455
103.499	131.850	80.010	19.994	103.290	20.330	3.974	0.477
103.999	132.085	80.001	19.996	103.290	20.332	3.827	0.466
104.499	132.287	80.005	19.996	103.289	20.331	3.897	0.445
104.999	132.505	80.002	19.995	103.288	20.332	3.879	0.429
105.499	132.727	80.007	19.994	103.286	20.331	3.939	0.430
105.999	132.982	80.007	19.994	103.285	20.334	3.743	0.458
106.500	133.185	80.002	19.994	103.285	20.329	4.038	0.467
107.001	133.481	80.006	19.993	103.285	20.331	3.959	0.479
107.500	133.672	80.000	19.995	103.287	20.332	3.829	0.494
107.999	133.928	80.005	19.994	103.287	20.331	3.891	0.467
108.499	134.147	80.005	19.993	103.287	20.329	4.052	0.461
108.999	134.375	80.003	19.995	103.287	20.330	3.996	0.461
109.499	134.599	80.003	19.994	103.287	20.328	4.141	0.449
109.999	134.860	80.005	19.995	103.286	20.331	3.959	0.469
110.499	135.070	79.998	19.996	103.287	20.330	3.999	0.478
111.000	135.334	80.006	19.994	103.285	20.330	3.961	0.472
111.500	135.561	80.006	19.994	103.285	20.330	3.995	0.482
111.999	135.816	80.007	19.995	103.286	20.331	3.935	0.486
112.500	136.048	80.005	19.995	103.287	20.331	3.904	0.484
113.001	136.305	80.010	19.995	103.287	20.332	3.842	0.488
113.500	136.500	80.004	19.996	103.291	20.332	3.821	0.471
114.000	136.744	80.004	19.996	103.292	20.330	3.992	0.446
114.500	136.996	80.004	19.995	103.291	20.331	3.900	0.468
114.999	137.274	80.003	19.996	103.291	20.332	3.819	0.513
115.499	137.511	80.000	19.996	103.291	20.332	3.827	0.523
115.999	137.724	80.005	19.994	103.290	20.331	3.898	0.482
116.500	138.005	80.003	19.995	103.291	20.332	3.869	0.472
117.001	138.281	80.003	19.996	103.293	20.330	4.024	0.526
117.500	138.418	80.006	19.995	103.293	20.329	4.094	0.485
117.999	138.705	79.999	19.994	103.293	20.331	3.955	0.418
118.501	138.991	80.002	19.994	103.292	20.327	4.192	0.498
119.001	139.193	80.003	19.995	103.291	20.327	4.207	0.530
119.499	139.425	80.000	19.996	103.291	20.328	4.126	0.461
119.999	139.688	80.005	19.995	103.291	20.327	4.240	0.465
120.500	139.956	80.002	19.994	103.290	20.330	3.986	0.513
121.000	140.196	80.004	19.996	103.290	20.327	4.217	0.519
121.499	140.429	80.000	19.994	103.287	20.329	4.095	0.490
122.000	140.702	80.004	19.993	103.286	20.328	4.169	0.490
122.500	140.908	80.001	19.994	103.284	20.329	4.077	0.493
123.000	141.184	80.005	19.994	103.283	20.327	4.194	0.481
123.500	141.443	80.005	19.994	103.281	20.329	4.069	0.508
123.999	141.671	80.003	19.994	103.284	20.331	3.945	0.511
124.499	141.885	80.005	19.994	103.285	20.332	3.863	0.465
125.001	142.145	80.005	19.993	103.286	20.331	3.935	0.458
125.501	142.391	80.003	19.994	103.289	20.330	3.960	0.490
126.000	142.659	80.004	19.993	103.290	20.329	4.067	0.510
126.499	142.908	80.009	19.994	103.287	20.330	4.011	0.516
127.000	143.177	80.003	19.993	103.288	20.329	4.055	0.517
127.501	143.431	80.001	19.995	103.285	20.330	3.999	0.520
128.000	143.705	80.004	19.995	103.282	20.332	3.820	0.525
128.500	143.938	80.005	19.995	103.284	20.331	3.910	0.517
129.000	144.212	80.003	19.993	103.286	20.330	4.009	0.507
129.500	144.413	80.003	19.995	103.286	20.333	3.772	0.491
130.000	144.691	80.000	19.995	103.289	20.333	3.815	0.477
130.500	144.918	80.004	19.993	103.290	20.328	4.133	0.492
131.000	145.178	80.000	19.994	103.291	20.331	3.924	0.496
131.500	145.461	80.004	19.994	103.291	20.333	3.749	0.515
132.000	145.701	80.004	19.994	103.291	20.330	3.972	0.533
132.500	145.957	80.001	19.996	103.292	20.334	3.735	0.510
133.000	146.178	80.004	19.996	103.292	20.326	4.306	0.486
133.500	146.469	80.006	19.995	103.289	20.333	3.814	0.495
134.000	146.687	80.003	19.994	103.285	20.330	4.001	0.510
134.500	146.920	80.001	19.995	103.284	20.331	3.927	0.480
135.000	147.187	80.003	19.995	103.282	20.331	3.935	0.476
135.500	147.425	80.001	19.995	103.281	20.328	4.154	0.503
136.000	147.697	80.002	19.996	103.281	20.331	3.929	0.507
136.500	147.943	80.003	19.995	103.284	20.329	4.063	0.514
137.000	148.201	80.001	19.995	103.282	20.332	3.863	0.511
137.500	148.504	80.002	19.995	103.280	20.331	3.944	0.532
138.000	148.744	80.003	19.995	103.280	20.334	3.686	0.552
138.500	149.006	80.001	19.994	103.281	20.331	3.946	0.523
139.000	149.292	80.001	19.995	103.278	20.331	3.929	0.525
139.500	149.487	80.000	19.996	103.279	20.330	4.024	0.514
140.000	149.736	80.002	19.996	103.280	20.333	3.775	0.463
140.500	150.032	80.002	19.996	103.281	20.331	3.944	0.495
141.000	150.283	80.002	19.995	103.282	20.329	4.068	0.546
141.500	150.527	80.000	19.997	103.285	20.331	3.899	0.521
142.000	150.778	80.003	19.997	103.285	20.333	3.779	0.495
142.500	151.054	80.002	19.997	103.286	20.331	3.954	0.511
143.000	151.315	80.001	19.997	103.283	20.330	4.020	0.533
143.500	151.534	80.004	19.996	103.279	20.329	4.096	0.509
144.000	151.799	80.003	19.995	103.278	20.326	4.257	0.482
144.500	152.041	80.003	19.996	103.277	20.332	3.839	0.495
145.000	152.281	80.000	19.996	103.273	20.330	4.004	0.494
145.500	152.564	80.000	19.996	103.273	20.330	3.998	0.502
146.000	152.760	80.003	19.995	103.273	20.331	3.953	0.501
146.500	153.046	80.003	19.998	103.273	20.332	3.878	0.481
147.000	153.320	79.999	19.998	103.273	20.334	3.717	0.520
147.500	153.581	80.002	19.996	103.270	20.332	3.866	0.547
148.000	153.821	80.002	19.995	103.267	20.334	3.676	0.518
148.500	154.081	80.002	19.995	103.268	20.333	3.790	0.501
149.000	154.314	80.003	19.995	103.267	20.333	3.767	0.496
149.500	154.573	80.002	19.994	103.264	20.329	4.070	0.492
150.000	154.793	80.004	19.996	103.264	20.329	4.041	0.486
150.500	155.093	80.004	19.994	103.265	20.327	4.233	0.500
151.000	155.341	80.006	19.994	103.260	20.330	3.975	0.534
151.500	155.597	80.001	19.994	103.257	20.331	3.942	0.526
152.000	155.804	80.001	19.993	103.258	20.331	3.891	0.484
152.500	156.074	80.003	19.995	103.261	20.331	3.948	0.471
153.000	156.347	80.003	19.994	103.262	20.330	3.971	0.510
153.500	156.606	80.002	19.996	103.267	20.333	3.800	0.537
154.000	156.868	80.005	19.995	103.268	20.333	3.798	0.527
154.500	157.122	80.003	19.996	103.265	20.331	3.936	0.518
155.000	157.338	80.003	19.995	103.261	20.328	4.149	0.493
155.500	157.615	80.003	19.994	103.258	20.331	3.905	0.481
156.000	157.840	80.005	19.995	103.253	20.328	4.109	0.498
156.500	158.106	80.004	19.994	103.252	20.334	3.726	0.497
157.000	158.347	80.005	19.994	103.253	20.332	3.839	0.499
157.500	158.571	80.004	19.995	103.256	20.330	3.975	0.485
158.000	158.867	80.005	19.995	103.255	20.333	3.771	0.492
158.500	159.110	80.004	19.995	103.256	20.331	3.936	0.530
159.000	159.338	80.004	19.996	103.254	20.333	3.800	0.505
159.500	159.600	80.009	19.995	103.254	20.330	3.975	0.480
160.000	159.863	80.005	19.993	103.253	20.331	3.932	0.508
160.500	160.104	80.007	19.994	103.254	20.329	4.031	0.515
161.000	160.315	80.008	19.994	103.253	20.332	3.847	0.478
161.500	160.650	80.000	19.995	103.253	20.329	4.093	0.499
162.000	160.868	80.008	19.994	103.253	20.332	3.872	0.549
162.500	161.112	80.007	19.995	103.253	20.329	4.062	0.507
163.000	161.365	80.020	19.993	103.254	20.327	4.221	0.479
163.500	161.605	79.996	19.996	103.257	20.329	4.029	0.495
164.000	161.861	80.018	19.992	103.254	20.333	3.808	0.495
164.500	162.122	79.992	19.995	103.257	20.329	4.099	0.506
165.000	162.365	80.007	19.993	103.255	20.333	3.812	0.510
165.500	162.626	80.003	19.995	103.253	20.328	4.159	0.504
166.000	162.876	80.008	19.994	103.249	20.330	3.979	0.508
166.500	163.139	80.008	19.994	103.255	20.330	4.016	0.512
167.000	163.389	80.009	19.995	103.253	20.329	4.089	0.513
167.500	163.646	80.004	19.995	103.256	20.330	4.015	0.510
168.000	163.868	80.008	19.993	103.255	20.331	3.887	0.493
168.500	164.142	79.997	19.997	103.257	20.331	3.940	0.488
169.000	164.388	79.994	19.996	103.252	20.334	3.703	0.508
169.500	164.671	80.008	19.994	103.247	20.331	3.932	0.525
170.000	164.933	80.014	19.995	103.246	20.329	4.093	0.537
170.500	165.179	80.007	19.993	103.249	20.332	3.833	0.527
171.000	165.445	80.008	19.995	103.249	20.327	4.188	0.511
171.500	165.670	80.015	19.993	103.252	20.328	4.132	0.502
172.000	165.924	80.003	19.993	103.257	20.330	3.963	0.485
