Sample ID:	C:\MCC\MCC Cal\Test\PMMA_R06_MCC_30K_min_211015_R3.txt
Sample Weight (mg):	4.86
Heating Rate (C/s):	0.5
Combustor Temp (C):	900
N2 Flow Rate (cc/min):	80
O2 Flow Rate (cc/min):	20
Calibration File:	C:\MCC\MCC Cal\Coeff1 JN10440_30_210304.txt.txt
T Correction Coefficients:	0	1.024463	0
Time Shift (s):	14
*
Time (s)	Temperature (C)	N2 flow rate (cc/min)	O2 flow rate (cc/min)	Flow Rate (cc/min)	Oxygen (%)	HRR (W/g)	Heating rate (C/s)
0.000	108.474	79.990	19.999	102.709	20.015	0.076	0.015
0.500	108.416	79.995	19.996	102.713	20.017	-0.040	0.017
1.000	108.419	79.991	20.000	102.719	20.019	-0.167	-0.035
1.500	108.415	79.994	19.990	102.720	20.016	-0.007	-0.028
2.000	108.423	79.991	19.999	102.722	20.016	0.043	0.002
2.500	108.413	79.997	19.996	102.721	20.019	-0.194	0.001
3.000	108.415	79.994	19.995	102.718	20.017	-0.031	-0.005
3.500	108.428	79.995	19.995	102.711	20.016	-0.002	0.004
4.000	108.435	79.996	19.994	102.710	20.015	0.090	0.018
4.500	108.412	79.995	19.998	102.711	20.015	0.067	0.002
5.000	108.432	79.996	19.995	102.713	20.018	-0.106	-0.010
5.500	108.444	79.992	19.998	102.713	20.015	0.095	0.015
6.000	108.424	79.994	19.996	102.715	20.013	0.236	0.012
6.500	108.430	79.994	19.996	102.719	20.014	0.149	-0.011
7.000	108.434	79.994	19.997	102.720	20.011	0.313	-0.002
7.500	108.409	79.995	19.996	102.719	20.014	0.164	-0.006
8.000	108.395	79.994	19.995	102.721	20.013	0.203	-0.030
8.500	108.419	79.993	19.995	102.725	20.013	0.182	-0.015
9.001	108.419	79.993	19.995	102.724	20.011	0.346	0.017
9.501	108.407	79.996	19.995	102.728	20.014	0.160	0.006
10.000	108.441	79.996	19.995	102.735	20.012	0.310	0.005
10.500	108.431	79.994	19.995	102.740	20.011	0.358	0.023
11.000	108.426	79.996	19.995	102.742	20.009	0.500	0.005
11.500	108.404	79.996	19.997	102.746	20.011	0.358	-0.021
12.000	108.463	79.997	19.994	102.746	20.009	0.502	0.005
12.500	108.403	79.995	19.996	102.745	20.009	0.472	0.018
13.000	108.438	79.996	19.996	102.744	20.008	0.529	-0.013
13.500	108.453	79.994	19.998	102.746	20.009	0.506	0.013
14.000	108.431	79.994	19.994	102.750	20.008	0.563	0.022
14.500	108.431	79.995	19.997	102.753	20.008	0.524	-0.015
15.000	108.451	79.996	19.998	102.758	20.011	0.373	-0.001
15.500	108.475	79.994	19.997	102.763	20.008	0.518	0.032
16.000	108.496	79.996	19.995	102.762	20.009	0.475	0.044
16.500	108.477	79.995	19.996	102.763	20.009	0.443	0.023
17.000	108.483	79.996	19.995	102.766	20.008	0.565	-0.006
17.500	108.523	79.999	19.995	102.762	20.011	0.369	0.016
18.000	108.483	79.995	19.995	102.755	20.007	0.587	0.023
18.500	108.485	79.996	19.997	102.753	20.010	0.398	-0.019
19.000	108.524	79.996	19.995	102.747	20.011	0.346	0.002
19.500	108.536	79.997	19.995	102.743	20.006	0.659	0.045
20.000	108.516	79.998	19.995	102.745	20.007	0.639	0.021
20.500	108.515	79.996	19.997	102.747	20.008	0.557	-0.015
21.000	108.551	79.997	19.996	102.749	20.010	0.429	0.007
21.500	108.580	79.998	19.997	102.749	20.009	0.485	0.050
22.000	108.591	79.994	19.997	102.750	20.010	0.425	0.052
22.500	108.605	79.998	19.996	102.747	20.010	0.411	0.033
23.000	108.612	79.995	19.997	102.749	20.009	0.467	0.024
23.500	108.634	80.007	19.994	102.749	20.010	0.432	0.025
24.000	108.649	79.997	19.994	102.748	20.008	0.528	0.033
24.500	108.628	79.995	19.997	102.747	20.007	0.595	0.016
25.000	108.684	79.996	19.995	102.746	20.007	0.627	0.015
25.500	108.693	79.996	19.996	102.744	20.006	0.672	0.050
26.000	108.692	79.997	19.996	102.746	20.003	0.858	0.037
26.500	108.759	79.996	19.996	102.752	20.006	0.674	0.037
27.000	108.706	79.994	19.995	102.759	20.004	0.836	0.040
27.500	108.787	79.994	19.997	102.768	20.004	0.814	0.022
28.000	108.766	79.993	19.998	102.777	20.004	0.809	0.044
28.500	108.789	79.992	19.995	102.786	20.004	0.809	0.031
29.000	108.790	79.993	19.998	102.795	20.002	0.968	0.013
29.500	108.831	79.994	19.996	102.802	20.002	0.952	0.033
30.000	108.889	79.993	19.994	102.810	20.004	0.795	0.071
30.500	108.952	79.995	19.997	102.819	20.002	0.950	0.110
31.000	108.930	79.994	19.997	102.830	20.002	0.950	0.081
31.500	108.984	79.996	19.995	102.838	19.997	1.287	0.037
32.000	109.008	79.996	19.997	102.846	19.996	1.321	0.055
32.501	109.031	79.995	19.996	102.852	19.995	1.417	0.062
33.001	109.078	79.995	19.996	102.853	19.995	1.386	0.059
33.500	109.119	79.994	19.996	102.852	19.995	1.394	0.079
34.000	109.135	79.993	19.996	102.852	19.994	1.471	0.072
34.500	109.197	79.994	19.997	102.851	19.992	1.583	0.068
35.000	109.232	79.994	19.995	102.853	19.991	1.664	0.088
35.500	109.274	79.995	19.995	102.857	19.994	1.457	0.087
36.000	109.321	79.995	19.994	102.858	19.992	1.617	0.083
36.500	109.340	79.992	19.996	102.858	19.991	1.660	0.078
37.000	109.445	79.997	19.991	102.859	19.990	1.700	0.095
37.500	109.441	79.997	19.994	102.864	19.989	1.788	0.112
38.000	109.482	79.989	20.001	102.870	19.989	1.776	0.068
38.501	109.541	79.991	19.995	102.876	19.987	1.961	0.068
39.001	109.599	79.993	19.999	102.884	19.988	1.851	0.109
39.500	109.661	79.988	19.999	102.891	19.990	1.734	0.119
40.000	109.719	79.998	19.990	102.894	19.988	1.881	0.120
40.500	109.758	79.996	19.991	102.896	19.985	2.061	0.108
41.000	109.824	79.997	19.999	102.900	19.986	2.021	0.100
41.500	109.853	80.000	19.994	102.899	19.989	1.801	0.100
42.000	109.958	79.993	19.991	102.900	19.986	2.001	0.115
42.500	109.989	79.995	19.998	102.903	19.987	1.953	0.135
43.000	110.081	79.996	19.994	102.902	19.984	2.129	0.130
43.501	110.160	79.996	19.994	102.904	19.986	1.982	0.147
44.001	110.220	79.994	19.996	102.913	19.984	2.131	0.155
44.500	110.290	79.995	19.995	102.918	19.984	2.101	0.134
45.000	110.384	79.996	19.995	102.921	19.984	2.153	0.147
45.500	110.429	79.997	19.995	102.928	19.983	2.171	0.152
46.000	110.504	79.991	19.994	102.924	19.979	2.470	0.129
46.500	110.587	79.994	19.996	102.922	19.982	2.281	0.139
47.000	110.709	79.995	19.994	102.922	19.980	2.380	0.182
47.500	110.760	79.993	19.997	102.921	19.981	2.303	0.189
48.000	110.870	79.996	19.995	102.915	19.982	2.268	0.167
48.501	110.935	79.995	19.994	102.915	19.982	2.252	0.169
49.001	111.003	79.995	19.999	102.912	19.981	2.359	0.154
49.500	111.124	79.995	19.993	102.914	19.979	2.431	0.161
50.000	111.183	79.994	19.994	102.918	19.978	2.524	0.185
50.500	111.281	79.996	19.994	102.925	19.979	2.460	0.168
51.000	111.330	79.994	19.996	102.933	19.979	2.429	0.152
51.500	111.446	79.995	19.992	102.939	19.981	2.355	0.156
52.000	111.553	79.996	19.995	102.941	19.979	2.438	0.194
52.500	111.654	79.992	19.995	102.941	19.979	2.472	0.216
53.000	111.693	79.993	19.995	102.942	19.977	2.588	0.174
53.500	111.865	79.994	19.995	102.941	19.979	2.431	0.175
54.000	111.942	79.997	19.994	102.941	19.979	2.456	0.230
54.500	112.022	79.992	19.994	102.940	19.980	2.360	0.203
55.000	112.158	79.993	19.995	102.941	19.979	2.429	0.187
55.500	112.271	79.994	19.994	102.941	19.980	2.384	0.233
56.000	112.378	79.996	19.996	102.942	19.979	2.481	0.234
56.500	112.467	79.993	19.996	102.941	19.978	2.555	0.208
57.000	112.556	79.991	19.995	102.941	19.977	2.588	0.187
57.500	112.703	79.997	19.997	102.941	19.981	2.348	0.207
58.000	112.817	79.993	19.994	102.940	19.977	2.607	0.248
58.500	112.906	79.995	19.996	102.941	19.981	2.294	0.232
59.000	113.038	79.992	19.996	102.941	19.979	2.471	0.212
59.500	113.163	79.994	19.996	102.941	19.976	2.653	0.239
60.000	113.281	79.994	19.995	102.943	19.975	2.734	0.251
60.500	113.380	79.994	19.996	102.944	19.977	2.593	0.230
61.000	113.511	79.994	19.996	102.943	19.978	2.543	0.223
61.500	113.657	79.993	19.996	102.944	19.979	2.483	0.254
62.000	113.789	79.995	19.994	102.946	19.976	2.649	0.278
62.500	113.874	79.994	19.996	102.944	19.977	2.597	0.247
63.000	114.004	79.992	19.996	102.944	19.977	2.607	0.216
63.500	114.097	79.991	19.994	102.944	19.976	2.645	0.219
64.000	114.238	79.994	19.995	102.943	19.977	2.571	0.229
64.500	114.381	79.993	19.995	102.942	19.976	2.634	0.259
65.000	114.515	79.993	19.995	102.943	19.975	2.752	0.280
65.500	114.673	79.995	19.993	102.943	19.978	2.537	0.284
66.000	114.783	79.995	19.995	102.947	19.973	2.872	0.280
66.500	114.891	79.993	19.995	102.947	19.977	2.591	0.243
67.000	115.062	79.994	19.996	102.947	19.971	2.979	0.249
67.500	115.213	79.995	19.996	102.948	19.974	2.784	0.300
68.000	115.323	79.995	19.994	102.947	19.977	2.622	0.291
68.500	115.457	79.995	19.995	102.945	19.974	2.765	0.252
69.000	115.595	79.994	19.995	102.948	19.976	2.646	0.258
69.500	115.736	79.995	19.994	102.951	19.975	2.750	0.275
70.000	115.868	79.994	19.995	102.951	19.976	2.645	0.276
70.500	116.017	79.995	19.995	102.952	19.974	2.813	0.277
71.000	116.158	79.996	19.995	102.952	19.972	2.918	0.285
71.500	116.305	79.995	19.993	102.951	19.974	2.820	0.289
72.000	116.464	79.995	19.996	102.950	19.974	2.813	0.297
72.500	116.635	79.996	19.995	102.951	19.973	2.867	0.318
73.000	116.763	79.995	19.996	102.951	19.976	2.667	0.314
73.501	116.918	79.994	19.994	102.950	19.973	2.887	0.291
74.001	117.068	79.992	19.998	102.948	19.974	2.817	0.294
74.500	117.242	79.995	19.995	102.948	19.975	2.732	0.315
75.000	117.371	79.995	19.994	102.945	19.975	2.712	0.314
75.500	117.503	79.996	19.993	102.946	19.972	2.900	0.282
76.000	117.646	79.995	19.994	102.947	19.972	2.939	0.268
76.500	117.846	79.996	19.995	102.946	19.975	2.752	0.309
77.000	117.968	79.997	19.994	102.945	19.972	2.916	0.333
77.500	118.157	79.996	19.995	102.943	19.975	2.700	0.316
78.000	118.306	79.997	19.994	102.946	19.973	2.887	0.324
78.500	118.448	79.997	19.995	102.948	19.973	2.877	0.315
79.000	118.596	79.996	19.995	102.954	19.973	2.828	0.291
79.501	118.793	79.996	19.994	102.955	19.970	3.078	0.317
80.001	118.910	79.997	19.994	102.955	19.971	2.997	0.329
80.500	119.081	79.996	19.995	102.952	19.971	2.981	0.301
81.000	119.255	79.995	19.994	102.951	19.972	2.949	0.317
81.500	119.384	79.996	19.994	102.950	19.968	3.178	0.324
82.000	119.520	79.997	19.994	102.950	19.972	2.941	0.284
82.500	119.748	79.995	19.995	102.949	19.969	3.129	0.315
83.000	119.874	79.997	19.995	102.949	19.968	3.212	0.359
83.500	120.062	79.996	19.995	102.945	19.969	3.099	0.334
84.000	120.247	79.996	19.996	102.943	19.971	2.990	0.343
84.500	120.388	79.995	19.996	102.942	19.969	3.144	0.350
85.001	120.592	79.995	19.996	102.944	19.964	3.457	0.336
85.501	120.755	79.994	19.994	102.945	19.968	3.180	0.356
86.000	120.932	79.995	19.995	102.951	19.967	3.248	0.354
86.501	121.091	79.995	19.994	102.953	19.967	3.277	0.338
87.001	121.250	79.994	19.994	102.953	19.967	3.257	0.327
87.500	121.442	79.995	19.995	102.958	19.969	3.137	0.335
88.000	121.608	79.994	19.995	102.961	19.967	3.261	0.354
88.500	121.788	79.996	19.995	102.959	19.969	3.102	0.352
89.000	121.962	79.996	19.995	102.963	19.969	3.146	0.350
89.500	122.163	79.994	19.995	102.967	19.968	3.165	0.365
90.000	122.325	79.995	19.996	102.963	19.968	3.214	0.369
90.501	122.495	79.994	19.996	102.958	19.968	3.198	0.347
91.001	122.700	79.994	19.996	102.960	19.970	3.073	0.353
91.500	122.887	79.994	19.996	102.960	19.966	3.301	0.384
92.000	123.048	79.995	19.996	102.960	19.970	3.086	0.371
92.500	123.237	79.994	19.996	102.959	19.971	2.989	0.349
93.000	123.413	79.995	19.996	102.962	19.966	3.337	0.357
93.500	123.638	79.996	19.995	102.964	19.967	3.245	0.383
94.000	123.770	79.994	19.995	102.965	19.967	3.279	0.379
94.500	123.933	79.996	19.995	102.967	19.965	3.389	0.326
95.000	124.151	79.995	19.996	102.971	19.967	3.277	0.338
95.500	124.337	79.994	19.996	102.970	19.968	3.162	0.392
96.000	124.491	79.996	19.997	102.968	19.967	3.256	0.372
96.500	124.694	79.996	19.996	102.968	19.966	3.313	0.348
97.000	124.897	79.997	19.994	102.967	19.968	3.176	0.381
97.500	125.070	79.997	19.995	102.968	19.967	3.229	0.391
98.000	125.246	79.995	19.996	102.974	19.967	3.239	0.363
98.500	125.457	79.996	19.996	102.976	19.969	3.111	0.368
99.000	125.607	79.996	19.995	102.976	19.968	3.157	0.374
99.500	125.827	79.996	19.994	102.976	19.970	3.059	0.365
100.000	126.025	79.998	19.996	102.971	19.969	3.088	0.394
100.500	126.196	79.996	19.995	102.967	19.970	3.086	0.394
101.000	126.402	79.996	19.995	102.967	19.972	2.953	0.373
101.500	126.593	79.996	19.994	102.966	19.972	2.908	0.387
102.000	126.803	79.998	19.995	102.965	19.972	2.928	0.399
102.500	127.025	79.998	19.993	102.970	19.974	2.789	0.416
103.000	127.210	79.997	19.995	102.974	19.970	3.036	0.419
103.500	127.399	79.997	19.994	102.974	19.973	2.864	0.391
104.000	127.602	79.998	19.994	102.975	19.972	2.908	0.383
104.500	127.788	79.996	19.996	102.975	19.971	2.987	0.390
105.001	128.007	79.997	19.994	102.974	19.972	2.895	0.397
105.501	128.178	79.997	19.995	102.973	19.973	2.886	0.397
106.000	128.365	79.996	19.995	102.973	19.972	2.906	0.374
106.500	128.613	79.995	19.996	102.973	19.971	2.960	0.397
107.000	128.790	79.997	19.997	102.973	19.970	3.074	0.430
107.500	129.012	79.995	19.995	102.973	19.969	3.093	0.412
108.000	129.181	79.995	19.996	102.973	19.973	2.864	0.395
108.501	129.389	79.995	19.996	102.973	19.973	2.875	0.384
109.001	129.628	79.993	19.996	102.974	19.974	2.795	0.412
109.500	129.840	79.996	19.996	102.974	19.973	2.848	0.449
110.000	130.034	79.994	19.996	102.976	19.969	3.098	0.428
110.500	130.229	79.992	19.994	102.975	19.971	2.960	0.397
111.000	130.431	79.995	19.994	102.975	19.973	2.866	0.393
111.500	130.648	79.993	19.995	102.976	19.970	3.084	0.408
112.000	130.867	79.995	19.993	102.977	19.970	3.039	0.428
112.500	131.089	79.993	19.999	102.978	19.974	2.767	0.439
113.000	131.304	79.994	19.993	102.979	19.971	3.014	0.439
113.500	131.494	79.992	19.993	102.980	19.968	3.171	0.421
114.000	131.696	79.994	19.995	102.981	19.972	2.936	0.398
114.500	131.912	79.991	19.996	102.981	19.968	3.165	0.405
115.000	132.195	79.995	19.996	102.980	19.972	2.916	0.459
115.500	132.372	79.993	19.997	102.980	19.973	2.876	0.480
116.000	132.601	79.994	19.996	102.980	19.969	3.143	0.433
116.500	132.811	79.993	19.999	102.979	19.970	3.026	0.422
117.000	133.002	79.995	19.995	102.979	19.971	2.996	0.420
117.500	133.245	79.994	19.994	102.979	19.970	3.044	0.417
118.000	133.434	79.993	19.997	102.978	19.969	3.118	0.433
118.500	133.659	79.994	19.995	102.978	19.970	3.026	0.423
119.000	133.880	79.994	19.995	102.976	19.971	2.998	0.430
119.500	134.114	79.992	19.997	102.969	19.969	3.118	0.451
120.001	134.326	79.994	19.996	102.965	19.970	3.033	0.451
120.501	134.501	79.995	19.995	102.964	19.971	2.976	0.416
121.000	134.702	79.994	19.996	102.963	19.971	2.959	0.381
121.500	134.921	79.993	19.995	102.963	19.972	2.903	0.398
122.000	135.169	79.994	19.994	102.967	19.971	2.960	0.443
122.500	135.402	79.995	19.995	102.971	19.967	3.279	0.475
123.001	135.624	79.992	19.994	102.972	19.972	2.902	0.468
123.501	135.808	79.994	19.995	102.973	19.972	2.929	0.430
124.000	136.014	79.995	19.996	102.971	19.968	3.175	0.398
124.500	136.263	79.999	19.992	102.971	19.973	2.879	0.423
125.000	136.471	79.994	19.997	102.967	19.972	2.918	0.456
125.500	136.666	79.995	19.994	102.962	19.969	3.101	0.430
126.000	136.902	79.995	19.996	102.958	19.969	3.113	0.417
126.500	137.119	79.994	19.999	102.959	19.970	3.081	0.442
127.000	137.299	79.995	19.997	102.959	19.969	3.104	0.425
127.500	137.542	79.994	19.998	102.961	19.967	3.258	0.410
128.000	137.788	79.996	19.997	102.965	19.970	3.084	0.456
128.500	138.018	79.990	20.000	102.962	19.970	3.037	0.483
129.000	138.218	79.995	19.993	102.962	19.970	3.021	0.453
129.500	138.432	80.000	19.991	102.964	19.975	2.711	0.422
130.000	138.625	79.994	19.996	102.967	19.971	3.012	0.410
130.500	138.846	79.994	19.994	102.962	19.974	2.817	0.411
131.000	139.122	79.995	19.994	102.961	19.971	2.964	0.456
131.500	139.329	79.995	19.995	102.959	19.975	2.742	0.490
132.000	139.536	79.994	19.995	102.958	19.970	3.066	0.449
132.500	139.778	79.994	19.996	102.958	19.971	3.003	0.432
133.000	139.991	79.995	19.993	102.965	19.971	3.016	0.452
133.500	140.214	79.996	19.994	102.971	19.970	3.077	0.445
134.000	140.447	79.996	19.995	102.978	19.969	3.138	0.446
134.500	140.668	79.995	19.995	102.978	19.969	3.122	0.455
135.000	140.903	79.993	19.997	102.977	19.971	2.969	0.455
135.500	141.156	79.994	19.993	102.977	19.968	3.165	0.472
136.000	141.314	79.993	19.997	102.978	19.971	2.976	0.450
136.500	141.545	79.994	19.995	102.978	19.971	2.999	0.400
137.000	141.795	79.995	19.995	102.979	19.969	3.097	0.435
137.500	142.017	79.995	19.994	102.980	19.970	3.032	0.477
138.000	142.262	79.993	19.995	102.981	19.973	2.884	0.469
138.500	142.472	79.994	19.995	102.979	19.973	2.873	0.461
139.000	142.687	79.995	19.996	102.979	19.969	3.097	0.440
139.500	142.940	79.994	19.995	102.976	19.969	3.119	0.447
140.000	143.160	79.993	19.997	102.975	19.969	3.137	0.470
140.500	143.361	79.994	19.996	102.974	19.970	3.030	0.447
141.000	143.615	79.994	19.997	102.975	19.970	3.055	0.438
141.500	143.841	79.996	19.995	102.974	19.973	2.888	0.468
142.000	144.059	79.993	19.996	102.977	19.968	3.156	0.462
142.500	144.349	79.995	19.995	102.976	19.972	2.889	0.476
143.000	144.557	79.994	19.995	102.975	19.968	3.164	0.503
143.500	144.819	79.995	19.996	102.975	19.971	3.003	0.484
144.000	145.043	79.995	19.996	102.975	19.972	2.917	0.477
144.500	145.255	79.992	19.996	102.975	19.972	2.922	0.461
145.000	145.516	79.993	19.995	102.974	19.970	3.077	0.455
145.500	145.745	79.991	20.000	102.975	19.971	3.019	0.481
146.000	145.955	79.991	19.996	102.974	19.971	3.019	0.465
146.500	146.156	79.993	19.996	102.972	19.968	3.203	0.425
147.000	146.448	79.993	19.995	102.972	19.974	2.803	0.452
147.500	146.685	79.995	19.995	102.972	19.969	3.133	0.511
148.000	146.885	79.994	19.996	102.971	19.970	3.066	0.483
148.500	147.157	79.995	19.994	102.970	19.970	3.052	0.455
149.000	147.387	79.995	19.995	102.972	19.972	2.952	0.487
149.500	147.611	79.996	19.993	102.973	19.968	3.196	0.478
150.000	147.859	79.994	19.997	102.975	19.967	3.283	0.463
150.500	148.090	79.994	19.996	102.974	19.968	3.164	0.476
151.000	148.331	79.996	19.995	102.975	19.968	3.192	0.475
151.500	148.548	79.995	19.995	102.974	19.969	3.088	0.465
152.000	148.807	79.996	19.995	102.971	19.969	3.095	0.467
152.500	149.050	79.996	19.995	102.971	19.966	3.306	0.489
153.000	149.297	79.996	19.995	102.972	19.967	3.271	0.496
153.500	149.558	79.996	19.995	102.972	19.970	3.075	0.499
154.000	149.790	79.997	19.995	102.973	19.968	3.156	0.501
154.500	150.039	79.997	19.995	102.976	19.968	3.163	0.487
155.000	150.290	79.996	19.996	102.976	19.969	3.144	0.490
155.500	150.475	79.998	19.997	102.973	19.968	3.182	0.468
156.000	150.726	79.995	19.995	102.974	19.967	3.272	0.436
156.500	150.981	79.995	19.996	102.974	19.970	3.044	0.471
157.000	151.231	79.997	19.994	102.973	19.968	3.192	0.506
157.500	151.419	79.996	19.995	102.973	19.968	3.190	0.472
158.000	151.709	79.995	19.994	102.971	19.968	3.171	0.457
158.500	151.916	79.995	19.997	102.967	19.965	3.382	0.487
159.000	152.170	79.996	19.996	102.966	19.966	3.286	0.479
159.500	152.407	79.996	19.995	102.963	19.969	3.131	0.476
160.000	152.697	79.997	19.994	102.960	19.963	3.519	0.509
160.500	152.877	79.994	19.996	102.965	19.971	2.979	0.499
161.000	153.129	79.998	19.995	102.968	19.970	3.048	0.451
161.500	153.393	79.997	19.992	102.969	19.970	3.054	0.474
162.000	153.597	79.993	19.996	102.972	19.969	3.104	0.492
162.500	153.878	79.996	19.994	102.970	19.966	3.330	0.476
163.000	154.089	80.001	19.996	102.965	19.966	3.292	0.489
163.500	154.335	79.998	19.994	102.961	19.966	3.337	0.474
164.000	154.551	79.996	19.996	102.959	19.969	3.095	0.460
164.500	154.787	79.995	19.998	102.958	19.970	3.064	0.457
165.000	155.032	79.995	19.995	102.960	19.970	3.039	0.467
165.500	155.261	79.996	19.996	102.965	19.965	3.358	0.477
166.000	155.527	79.996	19.995	102.969	19.972	2.946	0.485
166.500	155.776	79.995	19.995	102.968	19.970	3.031	0.505
167.000	156.015	79.996	19.996	102.967	19.970	3.060	0.502
167.500	156.257	79.996	19.995	102.968	19.973	2.824	0.485
168.000	156.490	79.998	19.995	102.967	19.971	2.986	0.477
168.500	156.730	79.997	19.996	102.963	19.972	2.939	0.474
169.000	156.992	79.996	19.995	102.965	19.970	3.084	0.488
169.500	157.206	79.996	19.995	102.961	19.974	2.815	0.489
170.000	157.471	79.996	19.996	102.960	19.971	2.985	0.478
170.500	157.716	79.997	19.995	102.959	19.969	3.120	0.495
171.000	157.997	79.996	19.994	102.963	19.973	2.887	0.518
171.500	158.220	79.999	19.996	102.964	19.971	2.981	0.515
172.000	158.455	79.996	19.995	102.971	19.971	3.004	0.481
172.500	158.680	79.995	19.995	102.973	19.970	3.044	0.459
