Sample ID:	C:\MCC\MCC Cal\Test\Bean_Bag_Chair_Beads_MCC_30K_min_220315_R3.txt
Sample Weight (mg):	4.44
Heating Rate (C/s):	0.5
Combustor Temp (C):	900
N2 Flow Rate (cc/min):	80
O2 Flow Rate (cc/min):	20
Calibration File:	C:\MCC\MCC Cal\Coeff1 JN10440_30_210304.txt.txt
T Correction Coefficients:	0	1.024463	0
Time Shift (s):	14
*
Time (s)	Temperature (C)	N2 flow rate (cc/min)	O2 flow rate (cc/min)	Flow Rate (cc/min)	Oxygen (%)	HRR (W/g)	Heating rate (C/s)
0.000	108.205	80.013	19.994	103.746	19.926	0.020	-0.005
0.500	108.228	80.012	19.994	103.746	19.926	0.042	-0.013
1.000	108.242	80.011	19.993	103.746	19.928	-0.073	0.018
1.500	108.201	80.013	19.993	103.744	19.928	-0.065	0.005
2.000	108.188	80.011	19.994	103.743	19.926	0.071	-0.041
2.500	108.207	80.011	19.994	103.743	19.927	0.008	-0.024
3.000	108.180	80.011	19.993	103.743	19.927	-0.044	-0.001
3.500	108.188	80.012	19.993	103.744	19.923	0.304	-0.014
4.000	108.207	80.011	19.994	103.747	19.927	-0.024	0.004
4.500	108.194	80.010	19.994	103.748	19.927	0.004	0.017
5.000	108.192	80.010	19.993	103.749	19.927	-0.020	-0.005
5.500	108.203	80.010	19.994	103.757	19.926	0.067	-0.004
6.000	108.163	80.011	19.994	103.760	19.929	-0.159	-0.010
6.500	108.169	80.009	19.993	103.761	19.927	0.004	-0.031
7.000	108.171	80.011	19.993	103.762	19.928	-0.117	-0.013
7.500	108.183	80.010	19.993	103.760	19.926	0.079	0.012
8.000	108.156	80.011	19.992	103.752	19.930	-0.244	-0.000
8.500	108.153	80.011	19.992	103.749	19.928	-0.113	-0.023
9.000	108.149	80.011	19.993	103.749	19.928	-0.067	-0.019
9.500	108.148	80.011	19.993	103.749	19.926	0.071	-0.006
10.000	108.148	80.010	19.993	103.750	19.925	0.107	-0.003
10.500	108.167	80.010	19.992	103.748	19.928	-0.081	0.009
11.000	108.167	80.011	19.992	103.749	19.924	0.234	0.019
11.500	108.168	80.011	19.993	103.749	19.925	0.093	0.010
12.000	108.150	80.010	19.993	103.749	19.925	0.113	-0.008
12.500	108.188	80.011	19.993	103.749	19.924	0.230	0.001
13.000	108.138	80.010	19.993	103.753	19.923	0.298	0.003
13.500	108.156	80.010	19.993	103.752	19.921	0.403	-0.022
14.000	108.184	80.010	19.992	103.752	19.925	0.093	0.007
14.500	108.200	80.010	19.993	103.752	19.922	0.321	0.045
15.000	108.177	80.010	19.993	103.752	19.924	0.200	0.018
15.500	108.174	80.010	19.994	103.752	19.924	0.212	-0.016
16.000	108.198	80.012	19.994	103.753	19.922	0.315	-0.002
16.500	108.207	80.011	19.993	103.756	19.924	0.175	0.027
17.000	108.159	80.010	19.993	103.759	19.924	0.187	-0.003
17.500	108.179	80.010	19.993	103.762	19.922	0.333	-0.033
18.000	108.191	80.011	19.993	103.762	19.923	0.284	0.002
18.500	108.179	80.011	19.993	103.761	19.924	0.183	0.016
19.001	108.160	80.011	19.992	103.758	19.924	0.171	-0.016
19.500	108.156	80.011	19.992	103.755	19.923	0.242	-0.027
20.000	108.163	80.011	19.994	103.753	19.922	0.377	-0.010
20.500	108.182	80.011	19.993	103.753	19.920	0.490	0.015
21.000	108.161	80.011	19.993	103.760	19.923	0.282	0.012
21.500	108.172	80.011	19.993	103.763	19.921	0.445	-0.006
22.000	108.190	80.011	19.993	103.763	19.921	0.407	0.010
22.500	108.231	80.012	19.994	103.766	19.922	0.361	0.044
23.000	108.211	80.011	19.992	103.766	19.921	0.445	0.040
23.500	108.190	80.012	19.993	103.759	19.924	0.232	-0.010
24.000	108.201	80.012	19.993	103.756	19.921	0.447	-0.026
24.500	108.178	80.011	19.993	103.755	19.920	0.460	-0.011
25.000	108.181	80.011	19.993	103.752	19.922	0.373	-0.016
25.500	108.215	80.010	19.994	103.753	19.920	0.468	0.009
26.000	108.253	80.011	19.993	103.755	19.922	0.333	0.055
26.500	108.188	80.011	19.993	103.757	19.920	0.468	0.022
27.000	108.206	80.010	19.993	103.762	19.923	0.282	-0.037
27.500	108.219	80.011	19.994	103.765	19.918	0.651	-0.008
28.000	108.264	80.011	19.994	103.771	19.919	0.595	0.045
28.500	108.239	80.012	19.993	103.776	19.921	0.405	0.039
29.000	108.256	80.011	19.994	103.782	19.920	0.470	0.006
29.500	108.240	80.012	19.992	103.784	19.920	0.480	-0.004
30.000	108.277	80.009	19.993	103.785	19.921	0.437	0.011
30.500	108.278	80.010	19.993	103.785	19.918	0.605	0.029
31.000	108.271	80.011	19.994	103.784	19.920	0.498	0.016
31.500	108.238	80.010	19.993	103.783	19.917	0.703	-0.023
32.000	108.308	80.009	19.993	103.784	19.920	0.498	-0.001
32.500	108.276	80.010	19.993	103.785	19.915	0.828	0.037
33.000	108.274	80.010	19.993	103.785	19.917	0.683	0.001
33.500	108.308	80.010	19.993	103.784	19.916	0.802	-0.001
34.000	108.285	80.011	19.994	103.785	19.915	0.864	0.022
34.500	108.344	80.011	19.994	103.785	19.912	1.042	0.023
35.000	108.341	80.009	19.994	103.784	19.916	0.764	0.046
35.500	108.374	80.010	19.994	103.784	19.913	0.989	0.043
36.000	108.405	80.009	19.994	103.786	19.915	0.880	0.047
36.500	108.397	80.008	19.994	103.786	19.914	0.931	0.043
37.000	108.398	80.009	19.994	103.786	19.914	0.957	0.009
37.500	108.451	80.011	19.994	103.785	19.913	0.981	0.024
38.000	108.433	80.009	19.994	103.783	19.911	1.166	0.044
38.500	108.439	80.010	19.995	103.782	19.914	0.943	0.011
39.000	108.460	80.010	19.995	103.780	19.914	0.930	0.008
39.500	108.495	80.009	19.993	103.780	19.911	1.162	0.042
40.000	108.488	80.011	19.994	103.786	19.910	1.212	0.042
40.501	108.521	80.010	19.995	103.791	19.911	1.162	0.027
41.001	108.526	80.010	19.994	103.796	19.909	1.279	0.032
41.500	108.544	80.009	19.994	103.800	19.912	1.075	0.030
42.000	108.585	80.010	19.994	103.802	19.910	1.248	0.041
42.500	108.611	80.010	19.994	103.805	19.912	1.047	0.063
43.000	108.609	80.010	19.994	103.807	19.912	1.073	0.045
43.500	108.684	80.010	19.994	103.811	19.908	1.341	0.048
44.000	108.684	80.011	19.995	103.816	19.909	1.292	0.074
44.500	108.706	80.011	19.995	103.822	19.907	1.415	0.049
45.000	108.758	80.010	19.994	103.824	19.908	1.391	0.048
45.501	108.783	80.012	19.993	103.832	19.907	1.415	0.075
46.001	108.784	80.013	19.994	103.839	19.908	1.354	0.051
46.500	108.815	80.011	19.994	103.843	19.909	1.320	0.029
47.000	108.843	80.012	19.994	103.844	19.905	1.588	0.046
47.500	108.839	80.012	19.994	103.846	19.904	1.642	0.042
48.000	108.884	80.012	19.994	103.847	19.907	1.445	0.033
48.500	108.923	80.012	19.994	103.849	19.904	1.686	0.063
49.000	108.978	80.012	19.994	103.853	19.901	1.856	0.089
49.501	109.002	80.012	19.994	103.861	19.898	2.095	0.087
50.001	109.047	80.012	19.994	103.865	19.901	1.914	0.074
50.500	109.097	80.012	19.995	103.869	19.898	2.103	0.082
51.000	109.111	80.011	19.994	103.874	19.894	2.381	0.080
51.501	109.170	80.011	19.994	103.881	19.897	2.172	0.069
52.001	109.239	80.012	19.993	103.888	19.894	2.367	0.101
52.500	109.285	80.012	19.994	103.895	19.894	2.379	0.121
53.000	109.309	80.011	19.991	103.901	19.896	2.226	0.092
53.500	109.329	80.012	19.994	103.905	19.895	2.339	0.057
54.000	109.419	80.011	19.994	103.906	19.894	2.415	0.077
54.500	109.493	80.013	19.994	103.913	19.894	2.409	0.137
55.000	109.592	80.012	19.994	103.920	19.892	2.534	0.169
55.500	109.632	80.013	19.994	103.927	19.893	2.493	0.156
56.000	109.686	80.012	19.993	103.935	19.890	2.711	0.116
56.500	109.744	80.012	19.994	103.941	19.891	2.582	0.103
57.000	109.807	80.012	19.994	103.942	19.892	2.564	0.117
57.501	109.882	80.012	19.994	103.943	19.893	2.494	0.130
58.001	109.936	80.014	19.994	103.942	19.892	2.512	0.133
58.501	110.008	80.011	19.994	103.941	19.891	2.598	0.127
59.001	110.101	80.011	19.993	103.942	19.893	2.481	0.146
59.500	110.174	80.011	19.994	103.942	19.888	2.862	0.166
60.001	110.260	80.013	19.994	103.942	19.888	2.797	0.162
60.501	110.309	80.011	19.993	103.943	19.890	2.683	0.147
61.000	110.398	80.012	19.994	103.944	19.890	2.719	0.137
61.500	110.477	80.012	19.994	103.944	19.887	2.880	0.153
62.000	110.575	80.012	19.994	103.940	19.888	2.837	0.172
62.500	110.617	80.012	19.994	103.935	19.887	2.875	0.158
63.000	110.710	80.012	19.993	103.933	19.887	2.897	0.137
63.500	110.820	80.012	19.993	103.933	19.889	2.740	0.169
64.000	110.875	80.011	19.994	103.933	19.892	2.533	0.184
64.500	110.960	80.011	19.994	103.937	19.888	2.811	0.153
65.000	111.029	80.011	19.994	103.942	19.888	2.793	0.147
65.500	111.147	80.010	19.993	103.945	19.887	2.907	0.170
66.001	111.223	80.011	19.994	103.945	19.886	2.966	0.191
66.501	111.329	80.011	19.995	103.944	19.885	3.056	0.188
67.000	111.416	80.012	19.994	103.943	19.889	2.758	0.187
67.500	111.515	80.010	19.994	103.942	19.886	2.998	0.189
68.000	111.625	80.011	19.994	103.941	19.887	2.871	0.197
68.500	111.723	80.011	19.995	103.942	19.888	2.831	0.209
69.000	111.829	80.013	19.994	103.942	19.889	2.792	0.206
69.500	111.923	80.012	19.995	103.942	19.889	2.756	0.202
70.000	112.009	80.012	19.994	103.944	19.889	2.746	0.190
70.500	112.150	80.012	19.994	103.944	19.887	2.928	0.204
71.000	112.214	80.012	19.996	103.945	19.888	2.833	0.216
71.500	112.341	80.013	19.995	103.945	19.885	3.075	0.198
72.000	112.481	80.011	19.994	103.948	19.889	2.735	0.229
72.500	112.573	80.012	19.994	103.956	19.884	3.091	0.250
73.000	112.658	80.012	19.994	103.962	19.883	3.225	0.205
73.500	112.733	80.011	19.994	103.967	19.883	3.215	0.168
74.001	112.863	80.012	19.993	103.973	19.884	3.119	0.182
74.501	113.015	80.013	19.994	103.978	19.885	3.074	0.244
75.000	113.104	80.011	19.993	103.976	19.884	3.149	0.262
75.500	113.257	80.012	19.994	103.970	19.883	3.193	0.242
76.000	113.348	80.011	19.995	103.966	19.883	3.173	0.243
76.500	113.477	80.012	19.993	103.967	19.882	3.233	0.231
77.000	113.576	80.012	19.993	103.967	19.878	3.595	0.224
77.501	113.700	80.012	19.993	103.965	19.882	3.255	0.226
78.001	113.831	80.015	19.993	103.970	19.879	3.462	0.239
78.501	113.933	80.013	19.993	103.976	19.881	3.377	0.244
79.001	114.090	80.013	19.993	103.977	19.883	3.170	0.246
79.501	114.198	80.013	19.993	103.977	19.877	3.600	0.262
80.001	114.345	80.014	19.993	103.981	19.880	3.391	0.259
80.500	114.454	80.013	19.992	103.980	19.879	3.488	0.255
81.000	114.596	80.013	19.992	103.974	19.885	3.056	0.254
81.500	114.711	80.013	19.992	103.968	19.879	3.512	0.254
82.000	114.845	80.013	19.993	103.961	19.883	3.199	0.253
82.500	114.980	80.013	19.992	103.954	19.882	3.243	0.259
83.000	115.083	80.013	19.992	103.955	19.880	3.404	0.254
83.500	115.262	80.013	19.993	103.960	19.881	3.376	0.260
84.000	115.407	80.013	19.993	103.964	19.878	3.541	0.303
84.500	115.501	80.013	19.992	103.969	19.881	3.331	0.281
85.001	115.678	80.013	19.994	103.971	19.878	3.567	0.255
85.501	115.791	80.013	19.993	103.972	19.877	3.623	0.281
86.000	115.943	80.013	19.993	103.972	19.881	3.365	0.278
86.500	116.045	80.013	19.993	103.975	19.879	3.496	0.260
87.000	116.226	80.013	19.993	103.978	19.876	3.689	0.268
87.500	116.348	80.012	19.993	103.982	19.878	3.526	0.293
88.000	116.497	80.012	19.993	103.983	19.877	3.627	0.287
88.500	116.637	80.011	19.993	103.983	19.876	3.707	0.280
89.001	116.798	80.012	19.993	103.987	19.880	3.451	0.295
89.501	116.923	80.011	19.993	103.992	19.876	3.717	0.293
90.000	117.082	80.012	19.994	103.998	19.877	3.622	0.285
90.500	117.205	80.012	19.993	103.998	19.875	3.795	0.283
91.000	117.346	80.011	19.994	104.002	19.875	3.765	0.273
91.500	117.546	80.013	19.993	103.998	19.874	3.871	0.302
92.000	117.672	80.012	19.993	103.994	19.873	3.960	0.334
92.500	117.878	80.011	19.993	103.987	19.876	3.741	0.329
93.000	117.982	80.010	19.993	103.984	19.873	3.948	0.321
93.500	118.122	80.011	19.993	103.980	19.873	3.926	0.277
94.000	118.320	80.011	19.994	103.980	19.875	3.806	0.291
94.500	118.432	80.012	19.992	103.980	19.877	3.622	0.324
95.000	118.651	80.014	19.993	103.981	19.869	4.194	0.320
95.500	118.793	80.012	19.993	103.983	19.872	3.970	0.346
96.000	118.973	80.011	19.993	103.986	19.870	4.141	0.342
96.501	119.142	80.012	19.993	103.991	19.871	4.103	0.336
97.001	119.322	80.011	19.994	103.997	19.871	4.049	0.349
97.500	119.457	80.013	19.993	104.001	19.872	4.027	0.331
98.000	119.624	80.012	19.994	104.002	19.867	4.347	0.308
98.500	119.805	80.011	19.993	104.001	19.869	4.214	0.325
99.000	119.940	80.011	19.993	103.999	19.871	4.045	0.332
99.500	120.140	80.010	19.993	104.000	19.871	4.067	0.326
100.001	120.314	80.011	19.993	104.003	19.870	4.138	0.354
100.501	120.510	80.011	19.993	104.008	19.871	4.102	0.372
101.000	120.635	80.010	19.993	104.014	19.871	4.068	0.345
101.500	120.831	80.011	19.994	104.017	19.872	3.965	0.321
102.000	121.049	80.012	19.993	104.017	19.873	3.925	0.368
102.501	121.204	80.012	19.993	104.015	19.869	4.204	0.394
103.001	121.356	80.011	19.994	104.013	19.871	4.089	0.340
103.500	121.575	80.012	19.993	104.011	19.870	4.145	0.339
104.000	121.760	80.012	19.993	104.008	19.868	4.276	0.387
104.500	121.919	80.012	19.993	104.000	19.868	4.316	0.373
105.000	122.087	80.011	19.993	103.998	19.872	4.034	0.335
105.500	122.274	80.011	19.993	104.001	19.871	4.046	0.341
106.001	122.453	80.013	19.993	104.002	19.871	4.104	0.361
106.501	122.681	80.011	19.993	104.006	19.869	4.187	0.386
107.000	122.897	80.012	19.993	104.009	19.870	4.129	0.426
107.500	123.072	80.012	19.993	104.009	19.868	4.294	0.418
108.001	123.262	80.011	19.992	104.003	19.870	4.159	0.378
108.501	123.457	80.011	19.993	103.997	19.870	4.121	0.375
109.001	123.627	80.011	19.993	103.996	19.863	4.675	0.375
109.501	123.834	80.013	19.993	103.994	19.871	4.073	0.371
110.000	123.986	80.012	19.993	103.992	19.867	4.395	0.368
110.500	124.197	80.012	19.993	103.996	19.869	4.210	0.361
111.001	124.414	80.013	19.993	103.995	19.867	4.387	0.396
111.501	124.613	80.011	19.993	103.988	19.868	4.286	0.422
112.000	124.757	80.012	19.994	103.987	19.867	4.338	0.379
112.500	125.013	80.013	19.993	103.987	19.867	4.344	0.371
113.000	125.147	80.011	19.992	103.985	19.867	4.399	0.395
113.500	125.390	80.011	19.994	103.990	19.866	4.405	0.384
114.000	125.633	80.012	19.993	103.996	19.867	4.357	0.431
114.500	125.814	80.012	19.993	104.003	19.867	4.357	0.455
115.000	126.026	80.013	19.993	104.009	19.867	4.373	0.409
115.500	126.264	80.012	19.994	104.018	19.865	4.505	0.422
116.000	126.433	80.011	19.993	104.020	19.868	4.308	0.429
116.500	126.586	80.012	19.993	104.021	19.869	4.185	0.365
117.000	126.807	80.012	19.993	104.020	19.867	4.336	0.348
117.500	126.985	80.011	19.993	104.018	19.867	4.387	0.386
118.000	127.220	80.011	19.993	104.013	19.869	4.226	0.406
118.500	127.419	80.011	19.992	104.008	19.866	4.459	0.424
119.000	127.633	80.010	19.992	104.005	19.868	4.294	0.424
119.500	127.836	80.011	19.994	103.998	19.866	4.407	0.415
120.000	128.051	80.012	19.993	103.994	19.865	4.487	0.418
120.500	128.296	80.010	19.993	103.991	19.867	4.384	0.439
121.000	128.486	80.010	19.992	103.990	19.863	4.668	0.447
121.500	128.695	80.011	19.993	103.995	19.862	4.712	0.417
122.000	128.900	80.011	19.993	104.003	19.864	4.579	0.407
122.500	129.134	80.011	19.993	104.012	19.864	4.587	0.427
123.001	129.329	80.011	19.993	104.017	19.863	4.673	0.434
123.501	129.560	80.010	19.994	104.016	19.862	4.709	0.427
124.000	129.780	80.010	19.993	104.008	19.866	4.464	0.438
124.501	129.994	80.010	19.993	104.004	19.862	4.746	0.443
125.001	130.188	80.010	19.993	103.999	19.867	4.403	0.421
125.500	130.409	80.010	19.994	103.999	19.863	4.631	0.412
126.000	130.613	80.011	19.993	104.006	19.863	4.692	0.420
126.500	130.832	80.010	19.993	104.014	19.866	4.418	0.423
127.000	131.039	80.011	19.993	104.014	19.864	4.558	0.424
127.501	131.266	80.011	19.994	104.014	19.867	4.401	0.430
128.000	131.481	80.010	19.994	104.008	19.863	4.635	0.438
128.500	131.725	80.011	19.993	104.000	19.868	4.324	0.451
129.000	131.922	80.011	19.993	103.992	19.865	4.483	0.450
129.500	132.149	80.010	19.993	103.997	19.867	4.351	0.432
130.000	132.385	80.010	19.993	104.002	19.865	4.544	0.444
130.500	132.624	80.011	19.993	104.008	19.867	4.375	0.469
131.000	132.831	80.010	19.993	104.014	19.863	4.639	0.461
131.500	133.085	80.012	19.993	104.018	19.865	4.504	0.454
132.000	133.303	80.013	19.993	104.011	19.866	4.415	0.466
132.500	133.507	80.011	19.993	104.010	19.866	4.423	0.447
133.000	133.756	80.011	19.994	104.010	19.867	4.392	0.437
133.500	133.953	80.011	19.993	104.016	19.866	4.403	0.450
134.000	134.191	80.011	19.993	104.027	19.867	4.367	0.441
134.500	134.409	80.011	19.993	104.047	19.868	4.280	0.446
135.000	134.651	80.012	19.993	104.070	19.870	4.150	0.458
135.500	134.896	80.012	19.994	104.116	19.870	4.154	0.474
136.000	135.123	80.013	19.993	104.148	19.870	4.174	0.479
136.500	135.339	80.013	19.995	104.154	19.871	4.097	0.457
137.000	135.563	80.013	19.993	104.145	19.869	4.242	0.441
137.500	135.791	80.012	19.994	104.123	19.871	4.090	0.446
138.000	136.020	80.012	19.994	104.076	19.870	4.152	0.454
138.500	136.231	80.013	19.994	104.040	19.871	4.062	0.449
139.000	136.481	80.012	19.994	104.025	19.868	4.305	0.451
139.500	136.718	80.012	19.994	104.015	19.867	4.345	0.474
140.000	136.982	80.012	19.995	104.008	19.869	4.216	0.494
140.500	137.196	80.011	19.994	104.000	19.866	4.452	0.490
141.000	137.430	80.013	19.994	103.993	19.865	4.538	0.463
141.500	137.682	80.013	19.993	103.987	19.866	4.462	0.467
142.000	137.867	80.012	19.994	103.993	19.868	4.307	0.461
142.500	138.160	80.012	19.994	103.999	19.866	4.450	0.457
143.000	138.376	80.013	19.994	104.003	19.864	4.554	0.494
143.500	138.576	80.011	19.993	104.010	19.869	4.247	0.463
144.000	138.835	80.012	19.993	104.015	19.866	4.414	0.437
144.500	139.068	80.011	19.993	104.009	19.869	4.206	0.476
145.000	139.283	80.012	19.993	104.002	19.866	4.426	0.470
145.500	139.515	80.011	19.994	104.002	19.867	4.329	0.447
146.000	139.776	80.011	19.993	103.999	19.867	4.381	0.470
146.500	140.023	80.011	19.995	103.995	19.866	4.410	0.500
147.000	140.259	80.010	19.994	103.994	19.868	4.311	0.495
147.500	140.479	80.011	19.993	103.995	19.865	4.502	0.470
148.000	140.728	80.011	19.993	103.992	19.868	4.321	0.463
148.500	140.968	80.012	19.994	103.988	19.867	4.338	0.479
149.000	141.191	80.012	19.993	103.987	19.867	4.366	0.476
149.500	141.462	80.011	19.993	103.987	19.866	4.464	0.478
150.000	141.712	80.012	19.995	103.988	19.868	4.310	0.507
150.500	141.936	80.011	19.993	103.988	19.865	4.479	0.498
151.000	142.156	80.012	19.994	103.988	19.866	4.457	0.460
151.500	142.380	80.012	19.994	103.989	19.868	4.278	0.444
152.000	142.632	80.012	19.994	103.989	19.867	4.339	0.460
152.500	142.881	80.012	19.993	103.988	19.869	4.246	0.488
153.000	143.128	80.013	19.993	103.988	19.867	4.352	0.498
153.500	143.365	80.012	19.994	103.987	19.867	4.370	0.490
154.001	143.611	80.012	19.993	103.987	19.866	4.461	0.484
154.500	143.846	80.012	19.994	103.986	19.867	4.394	0.482
155.000	144.120	80.011	19.994	103.985	19.865	4.545	0.495
155.500	144.357	80.012	19.994	103.987	19.866	4.406	0.510
156.000	144.620	80.011	19.994	103.988	19.865	4.477	0.506
156.500	144.844	80.012	19.994	103.988	19.867	4.374	0.494
157.000	145.124	80.011	19.993	103.987	19.866	4.436	0.495
157.500	145.402	80.012	19.993	103.987	19.863	4.653	0.531
158.001	145.587	80.012	19.994	103.985	19.865	4.502	0.510
158.500	145.864	80.013	19.993	103.980	19.865	4.480	0.462
159.000	146.113	80.012	19.994	103.979	19.869	4.239	0.493
159.500	146.314	80.011	19.993	103.978	19.869	4.243	0.488
160.000	146.567	80.013	19.994	103.979	19.865	4.521	0.452
160.500	146.818	80.012	19.995	103.978	19.862	4.698	0.480
161.000	147.051	80.013	19.995	103.972	19.866	4.420	0.494
161.500	147.302	80.013	19.994	103.962	19.865	4.493	0.483
162.000	147.538	80.012	19.994	103.959	19.863	4.632	0.485
162.500	147.806	80.013	19.994	103.956	19.865	4.485	0.495
163.000	148.022	80.014	19.993	103.950	19.865	4.499	0.494
163.500	148.271	80.013	19.994	103.958	19.865	4.536	0.474
164.000	148.552	80.014	19.994	103.967	19.865	4.537	0.497
164.500	148.774	80.013	19.995	103.968	19.864	4.619	0.517
165.000	149.040	80.013	19.993	103.966	19.865	4.506	0.496
165.500	149.301	80.013	19.994	103.969	19.867	4.339	0.507
166.000	149.553	80.013	19.994	103.970	19.864	4.567	0.520
166.500	149.768	80.014	19.994	103.971	19.866	4.460	0.490
167.000	150.033	80.013	19.994	103.973	19.864	4.563	0.474
167.500	150.237	80.014	19.995	103.976	19.867	4.355	0.475
168.000	150.505	80.012	19.994	103.979	19.866	4.472	0.471
168.500	150.753	80.013	19.995	103.979	19.863	4.629	0.494
169.000	150.972	80.014	19.995	103.980	19.865	4.480	0.491
169.500	151.237	80.013	19.994	103.979	19.864	4.575	0.475
170.000	151.500	80.013	19.994	103.979	19.864	4.585	0.506
170.500	151.737	80.013	19.995	103.978	19.865	4.512	0.514
171.000	151.998	80.013	19.994	103.977	19.867	4.398	0.499
171.500	152.212	80.012	19.994	103.978	19.862	4.721	0.487
172.000	152.478	80.012	19.994	103.978	19.863	4.659	0.478
