Sample ID:	C:\MCC\MCC Cal\Test\LatexPillow_C_Foam_MCC_30K_min_211213_R1.txt
Sample Weight (mg):	4.41
Heating Rate (C/s):	0.5
Combustor Temp (C):	900
N2 Flow Rate (cc/min):	80
O2 Flow Rate (cc/min):	20
Calibration File:	C:\MCC\MCC Cal\Coeff1 JN10440_30_210304.txt.txt
T Correction Coefficients:	0	1.024463	0
Time Shift (s):	14
*
Time (s)	Temperature (C)	N2 flow rate (cc/min)	O2 flow rate (cc/min)	Flow Rate (cc/min)	Oxygen (%)	HRR (W/g)	Heating rate (C/s)
0.000	112.265	79.996	19.994	103.016	20.327	-0.080	-0.017
0.500	112.264	80.015	19.993	103.017	20.329	-0.217	0.005
1.000	112.280	80.014	19.991	103.022	20.328	-0.135	0.017
1.500	112.213	80.003	19.994	103.024	20.330	-0.288	-0.018
2.000	112.261	80.003	19.994	103.023	20.332	-0.465	-0.035
2.500	112.247	80.003	19.993	103.024	20.330	-0.290	0.007
3.000	112.257	80.005	19.995	103.025	20.331	-0.330	0.015
3.500	112.226	80.005	19.995	103.022	20.331	-0.336	-0.012
4.000	112.235	79.999	19.997	103.020	20.329	-0.251	-0.021
4.500	112.240	80.007	19.994	103.019	20.331	-0.360	-0.004
5.000	112.246	80.004	19.998	103.021	20.331	-0.332	0.012
5.500	112.232	80.003	19.995	103.016	20.329	-0.197	0.001
6.000	112.280	79.992	19.994	103.017	20.332	-0.447	0.013
6.500	112.252	79.995	19.997	103.019	20.327	-0.048	0.027
7.000	112.195	80.005	19.995	103.018	20.331	-0.354	-0.032
7.500	112.204	79.988	19.997	103.016	20.331	-0.328	-0.067
8.000	112.235	80.012	19.992	103.019	20.329	-0.205	-0.005
8.500	112.233	80.002	19.994	103.022	20.327	-0.095	0.034
9.000	112.226	80.001	19.995	103.020	20.328	-0.151	0.011
9.500	112.232	79.996	19.993	103.022	20.329	-0.219	-0.004
10.000	112.221	80.005	19.992	103.024	20.327	-0.090	-0.003
10.500	112.209	80.002	19.993	103.027	20.327	-0.048	-0.015
11.000	112.222	80.015	19.992	103.022	20.329	-0.183	-0.011
11.500	112.239	80.005	19.994	103.025	20.329	-0.191	0.016
12.000	112.195	80.008	19.994	103.028	20.326	0.006	0.001
12.501	112.231	80.008	19.992	103.033	20.327	-0.036	-0.018
13.001	112.252	80.013	19.992	103.041	20.323	0.187	0.025
13.500	112.207	79.987	19.994	103.054	20.326	-0.028	0.017
14.000	112.238	80.000	19.994	103.058	20.325	0.080	-0.019
14.500	112.228	80.003	19.995	103.060	20.324	0.121	0.003
15.001	112.202	80.003	19.995	103.062	20.322	0.323	-0.007
15.501	112.247	80.009	19.992	103.060	20.327	-0.106	-0.009
16.001	112.215	80.013	19.993	103.059	20.324	0.175	0.016
16.501	112.231	80.003	19.994	103.061	20.326	0.036	-0.001
17.000	112.231	79.999	19.995	103.066	20.323	0.227	0.000
17.500	112.251	80.015	19.995	103.072	20.323	0.213	0.018
18.000	112.222	80.016	19.991	103.077	20.320	0.462	0.005
18.500	112.220	80.022	19.994	103.085	20.318	0.595	-0.020
19.000	112.174	79.993	19.996	103.093	20.319	0.526	-0.039
19.500	112.215	80.001	19.993	103.095	20.317	0.633	-0.027
20.000	112.212	80.027	19.993	103.098	20.316	0.717	0.016
20.500	112.198	80.006	19.995	103.104	20.315	0.773	0.011
21.000	112.242	80.004	19.995	103.107	20.318	0.595	0.006
21.500	112.238	80.007	19.996	103.117	20.316	0.733	0.035
22.000	112.295	80.014	19.994	103.134	20.312	1.033	0.046
22.500	112.278	80.006	19.995	103.144	20.309	1.213	0.046
23.000	112.289	80.009	19.994	103.156	20.312	1.003	0.017
23.500	112.305	80.003	19.994	103.162	20.310	1.165	0.011
24.000	112.288	79.999	19.997	103.167	20.310	1.193	0.013
24.500	112.358	80.006	19.993	103.165	20.304	1.615	0.027
25.000	112.391	80.004	19.994	103.170	20.305	1.559	0.078
25.501	112.390	80.014	19.994	103.172	20.306	1.441	0.067
26.001	112.412	79.998	19.995	103.180	20.304	1.611	0.026
26.501	112.457	80.017	19.994	103.184	20.302	1.782	0.044
27.001	112.495	80.004	19.994	103.195	20.304	1.623	0.075
27.500	112.503	80.003	19.996	103.199	20.302	1.788	0.064
28.000	112.560	80.005	19.995	103.198	20.298	2.059	0.055
28.500	112.586	80.011	19.994	103.193	20.297	2.139	0.074
29.000	112.630	79.998	19.995	103.190	20.300	1.866	0.077
29.500	112.708	80.015	19.995	103.181	20.296	2.166	0.096
30.000	112.745	80.012	19.993	103.184	20.299	1.997	0.119
30.500	112.773	80.001	19.996	103.189	20.298	2.073	0.090
31.000	112.798	80.005	19.994	103.190	20.297	2.116	0.059
31.500	112.830	80.005	19.996	103.196	20.295	2.246	0.055
32.000	112.878	80.003	19.996	103.198	20.296	2.194	0.069
32.500	112.951	80.005	19.996	103.187	20.296	2.166	0.101
33.001	113.006	80.006	19.994	103.180	20.297	2.149	0.124
33.501	113.086	80.007	19.995	103.179	20.295	2.288	0.131
34.000	113.124	80.002	19.993	103.178	20.293	2.394	0.127
34.500	113.186	80.002	19.996	103.181	20.293	2.402	0.110
35.000	113.253	80.011	19.994	103.184	20.295	2.238	0.114
35.500	113.365	80.015	19.994	103.186	20.296	2.198	0.153
36.000	113.403	80.005	19.995	103.185	20.295	2.290	0.165
36.500	113.444	80.000	19.996	103.179	20.296	2.216	0.115
37.001	113.490	80.002	19.995	103.176	20.295	2.274	0.083
37.501	113.565	80.003	19.995	103.178	20.294	2.306	0.104
38.000	113.637	80.019	19.992	103.177	20.294	2.336	0.134
38.500	113.722	80.017	19.991	103.180	20.294	2.336	0.152
39.000	113.787	79.998	19.996	103.190	20.295	2.296	0.153
39.500	113.870	80.001	19.995	103.190	20.298	2.079	0.149
40.000	113.908	79.998	19.994	103.190	20.296	2.183	0.135
40.500	113.991	80.001	19.997	103.190	20.293	2.420	0.121
41.000	114.037	80.007	19.994	103.183	20.296	2.165	0.125
41.500	114.148	80.009	19.994	103.173	20.292	2.466	0.143
42.000	114.206	80.003	19.995	103.175	20.293	2.422	0.163
42.500	114.284	79.996	19.995	103.176	20.294	2.344	0.152
43.000	114.412	80.001	19.994	103.181	20.295	2.275	0.171
43.501	114.462	80.001	19.996	103.190	20.295	2.285	0.192
44.001	114.557	80.013	19.996	103.196	20.294	2.329	0.162
44.500	114.627	80.005	19.995	103.199	20.295	2.299	0.155
45.000	114.679	80.003	19.993	103.200	20.298	2.054	0.144
45.500	114.758	80.002	19.994	103.204	20.300	1.898	0.127
46.001	114.854	80.004	19.994	103.200	20.296	2.157	0.153
46.501	114.949	79.999	19.995	103.195	20.296	2.159	0.183
47.000	115.019	80.001	19.993	103.188	20.293	2.436	0.178
47.500	115.080	80.007	19.994	103.193	20.294	2.305	0.148
48.000	115.222	80.003	19.993	103.193	20.292	2.484	0.167
48.500	115.275	79.997	19.995	103.198	20.291	2.586	0.199
49.000	115.407	80.002	19.995	103.205	20.293	2.401	0.190
49.500	115.457	79.986	19.997	103.213	20.296	2.197	0.183
50.000	115.591	79.980	19.998	103.211	20.291	2.558	0.183
50.500	115.682	80.019	19.994	103.209	20.291	2.544	0.205
51.000	115.747	80.004	19.995	103.211	20.293	2.395	0.191
51.500	115.856	80.000	19.995	103.209	20.293	2.424	0.165
52.000	115.957	79.990	19.998	103.209	20.291	2.578	0.192
52.500	116.057	79.998	19.996	103.208	20.290	2.606	0.205
53.000	116.176	79.994	19.997	103.214	20.290	2.647	0.210
53.500	116.255	80.007	19.996	103.214	20.287	2.839	0.208
54.000	116.397	79.998	19.997	103.217	20.289	2.697	0.210
54.501	116.498	80.001	19.995	103.220	20.290	2.658	0.232
55.001	116.609	80.003	19.994	103.227	20.288	2.781	0.228
55.500	116.677	79.993	19.996	103.224	20.288	2.795	0.196
56.000	116.791	80.004	19.996	103.226	20.286	2.945	0.180
56.500	116.904	80.006	19.995	103.227	20.288	2.757	0.205
57.000	117.041	80.006	19.995	103.232	20.287	2.819	0.239
57.501	117.135	80.000	19.997	103.233	20.290	2.616	0.240
58.001	117.268	79.986	19.997	103.236	20.286	2.926	0.229
58.500	117.384	80.000	19.995	103.236	20.287	2.819	0.238
59.000	117.519	80.006	19.995	103.236	20.289	2.673	0.250
59.500	117.668	80.009	19.995	103.238	20.287	2.825	0.268
60.000	117.778	80.007	19.998	103.238	20.289	2.731	0.272
60.500	117.845	80.006	19.995	103.234	20.288	2.789	0.218
61.000	117.972	80.003	19.995	103.240	20.290	2.662	0.185
61.500	118.055	79.985	19.998	103.242	20.288	2.809	0.202
62.000	118.218	80.012	19.995	103.237	20.285	2.970	0.228
62.500	118.329	79.998	19.995	103.234	20.284	3.066	0.260
63.000	118.488	80.011	19.995	103.237	20.286	2.959	0.272
63.500	118.567	80.003	19.998	103.235	20.286	2.923	0.254
64.000	118.704	79.992	19.995	103.232	20.285	2.990	0.227
64.500	118.859	79.995	19.994	103.234	20.287	2.855	0.254
65.000	118.977	79.996	19.997	103.239	20.286	2.959	0.282
65.500	119.093	80.010	19.994	103.238	20.284	3.074	0.253
66.000	119.225	80.004	19.995	103.240	20.282	3.214	0.241
66.500	119.352	79.998	19.996	103.244	20.288	2.744	0.253
67.000	119.464	79.993	19.996	103.244	20.285	2.967	0.249
67.500	119.603	80.007	19.993	103.241	20.283	3.140	0.245
68.000	119.727	79.994	19.996	103.245	20.283	3.129	0.257
68.501	119.875	79.994	19.997	103.238	20.283	3.113	0.267
69.001	120.061	80.001	19.995	103.230	20.286	2.933	0.303
69.500	120.159	80.006	19.994	103.232	20.284	3.047	0.309
70.000	120.324	80.006	19.993	103.237	20.284	3.061	0.273
70.500	120.465	79.994	19.995	103.239	20.283	3.175	0.284
71.000	120.563	80.003	19.995	103.245	20.282	3.192	0.273
71.500	120.712	80.004	19.995	103.251	20.283	3.125	0.243
72.000	120.845	79.989	19.995	103.252	20.283	3.155	0.264
72.500	121.016	79.984	19.996	103.250	20.285	3.009	0.293
73.000	121.152	80.004	19.995	103.244	20.280	3.340	0.305
73.500	121.298	79.997	19.995	103.243	20.281	3.320	0.295
74.000	121.453	79.994	19.995	103.245	20.282	3.196	0.292
74.500	121.598	80.004	19.995	103.243	20.280	3.362	0.300
75.000	121.748	80.000	19.995	103.244	20.281	3.266	0.298
75.500	121.898	80.004	19.996	103.249	20.283	3.142	0.298
76.000	122.051	80.009	19.993	103.250	20.279	3.465	0.301
76.500	122.196	80.004	19.993	103.252	20.281	3.322	0.301
77.000	122.379	80.001	19.992	103.254	20.280	3.344	0.313
77.500	122.510	79.997	19.993	103.261	20.277	3.566	0.321
78.000	122.672	79.990	19.995	103.266	20.276	3.639	0.303
78.500	122.866	80.000	19.992	103.265	20.280	3.386	0.324
79.000	122.966	80.002	19.993	103.268	20.281	3.308	0.325
79.500	123.131	80.002	19.992	103.270	20.280	3.388	0.280
80.000	123.260	80.001	19.993	103.268	20.277	3.605	0.280
80.500	123.477	80.011	19.994	103.265	20.276	3.643	0.320
81.000	123.654	80.007	19.993	103.271	20.276	3.635	0.370
81.500	123.792	79.993	19.996	103.272	20.275	3.745	0.355
82.000	123.914	79.995	19.996	103.268	20.275	3.705	0.288
82.500	124.089	80.016	19.995	103.268	20.278	3.502	0.278
83.000	124.275	80.006	19.993	103.274	20.277	3.611	0.329
83.500	124.418	80.000	19.995	103.273	20.276	3.627	0.345
84.000	124.574	80.007	19.993	103.270	20.278	3.514	0.314
84.500	124.726	79.991	19.995	103.275	20.277	3.612	0.303
85.001	124.911	80.005	19.995	103.271	20.275	3.707	0.323
85.501	125.074	79.997	19.996	103.265	20.274	3.793	0.343
86.000	125.246	80.004	19.993	103.263	20.273	3.841	0.341
86.501	125.404	79.999	19.996	103.265	20.273	3.885	0.333
87.001	125.603	80.002	19.994	103.264	20.276	3.687	0.344
87.500	125.780	80.014	19.994	103.273	20.276	3.658	0.366
88.000	125.973	80.009	19.994	103.282	20.276	3.634	0.373
88.500	126.148	79.995	19.996	103.288	20.276	3.647	0.369
89.000	126.329	79.997	19.996	103.289	20.275	3.723	0.362
89.500	126.465	80.005	19.996	103.284	20.276	3.624	0.336
90.000	126.628	80.000	19.997	103.279	20.273	3.861	0.307
90.500	126.841	79.988	19.998	103.270	20.271	4.026	0.338
91.000	127.024	80.003	19.995	103.265	20.273	3.887	0.386
91.500	127.241	80.007	19.994	103.265	20.274	3.779	0.398
92.000	127.337	79.992	19.997	103.275	20.270	4.106	0.357
92.500	127.549	80.009	19.995	103.274	20.272	3.915	0.310
93.000	127.759	80.006	19.995	103.281	20.276	3.644	0.365
93.500	127.959	79.997	19.995	103.286	20.275	3.736	0.416
94.000	128.119	80.019	19.995	103.285	20.272	3.975	0.385
94.500	128.281	80.005	19.995	103.281	20.273	3.879	0.341
95.000	128.477	80.023	19.992	103.284	20.271	4.014	0.340
95.500	128.632	79.998	19.997	103.288	20.270	4.102	0.355
96.000	128.839	79.999	19.994	103.283	20.271	4.054	0.357
96.500	129.067	80.015	19.992	103.286	20.270	4.058	0.398
97.000	129.254	80.006	19.995	103.289	20.270	4.066	0.425
97.500	129.444	80.004	19.992	103.293	20.269	4.130	0.396
98.000	129.660	80.000	19.994	103.291	20.267	4.281	0.392
98.500	129.841	80.006	19.995	103.296	20.266	4.399	0.402
99.000	129.996	80.004	19.994	103.294	20.271	4.054	0.367
99.501	130.234	80.007	19.994	103.289	20.272	3.980	0.364
100.001	130.417	80.015	19.994	103.289	20.270	4.090	0.406
100.501	130.628	80.010	19.994	103.289	20.266	4.361	0.407
101.001	130.807	80.013	19.992	103.289	20.268	4.237	0.392
101.500	130.998	80.012	19.993	103.292	20.270	4.092	0.380
102.000	131.216	80.006	19.993	103.294	20.270	4.078	0.390
102.500	131.388	80.017	19.994	103.294	20.270	4.108	0.399
103.000	131.632	80.005	19.991	103.298	20.270	4.060	0.403
103.500	131.837	80.008	19.992	103.303	20.272	3.919	0.433
104.000	131.999	80.017	19.991	103.304	20.268	4.234	0.408
104.501	132.226	79.986	19.995	103.306	20.267	4.304	0.378
105.001	132.458	80.011	19.992	103.302	20.270	4.098	0.424
105.500	132.637	80.000	19.994	103.297	20.271	4.002	0.435
106.000	132.819	79.997	19.993	103.290	20.268	4.203	0.386
106.500	133.041	79.998	19.993	103.287	20.271	4.048	0.382
107.000	133.261	80.024	19.992	103.285	20.269	4.162	0.423
107.500	133.451	80.022	19.992	103.291	20.270	4.128	0.426
108.000	133.657	79.996	19.995	103.295	20.268	4.243	0.403
108.501	133.871	80.009	19.996	103.295	20.270	4.070	0.408
109.001	134.143	80.018	19.994	103.294	20.269	4.140	0.454
109.500	134.300	80.007	19.993	103.293	20.272	3.962	0.458
110.000	134.502	80.008	19.993	103.290	20.270	4.084	0.394
110.501	134.697	80.003	19.994	103.286	20.265	4.469	0.378
111.001	134.903	80.000	19.993	103.286	20.270	4.080	0.399
111.500	135.129	79.998	19.995	103.288	20.271	4.018	0.416
112.000	135.383	79.999	19.993	103.285	20.269	4.152	0.456
112.500	135.581	80.014	19.995	103.288	20.273	3.893	0.466
113.000	135.777	80.000	19.996	103.292	20.270	4.058	0.423
113.500	136.051	80.025	19.990	103.291	20.274	3.825	0.432
114.000	136.267	80.002	19.993	103.296	20.271	4.038	0.480
114.500	136.432	79.997	19.995	103.300	20.270	4.114	0.436
115.000	136.663	80.011	19.993	103.298	20.270	4.076	0.388
115.500	136.913	79.992	19.995	103.297	20.272	3.936	0.438
116.000	137.138	80.009	19.996	103.298	20.267	4.291	0.478
116.501	137.374	79.992	19.997	103.291	20.268	4.248	0.468
117.001	137.525	80.008	19.995	103.287	20.267	4.306	0.424
117.500	137.779	80.014	19.993	103.286	20.267	4.286	0.396
118.000	137.982	79.991	19.995	103.285	20.267	4.346	0.431
118.500	138.213	79.975	19.997	103.282	20.267	4.318	0.446
119.000	138.473	80.007	19.993	103.279	20.271	4.037	0.463
119.501	138.710	80.007	19.995	103.286	20.270	4.086	0.494
120.001	138.895	80.008	19.995	103.287	20.266	4.391	0.459
120.500	139.138	80.008	19.995	103.283	20.266	4.403	0.425
121.000	139.389	80.002	19.996	103.287	20.269	4.200	0.461
121.500	139.620	80.010	19.994	103.293	20.268	4.265	0.488
122.000	139.816	79.994	19.996	103.290	20.274	3.827	0.454
122.501	140.075	79.996	19.994	103.290	20.267	4.303	0.441
123.001	140.302	79.999	19.994	103.293	20.268	4.215	0.471
123.500	140.533	79.999	19.994	103.294	20.269	4.180	0.472
124.000	140.739	80.003	19.994	103.296	20.272	3.926	0.447
124.501	140.988	79.989	19.996	103.296	20.270	4.098	0.446
125.001	141.229	80.011	19.995	103.294	20.272	3.926	0.473
125.500	141.419	80.003	19.995	103.293	20.271	4.046	0.460
126.000	141.677	79.976	19.996	103.292	20.269	4.174	0.439
126.500	141.931	80.016	19.993	103.288	20.269	4.130	0.480
127.000	142.164	80.011	19.995	103.294	20.270	4.086	0.500
127.500	142.402	80.010	19.992	103.298	20.269	4.130	0.479
128.000	142.605	80.019	19.993	103.301	20.271	3.994	0.456
128.500	142.849	80.000	19.996	103.304	20.272	3.939	0.444
129.000	143.095	80.015	19.995	103.306	20.272	3.976	0.469
129.500	143.307	80.016	19.994	103.299	20.271	4.052	0.474
130.000	143.546	80.001	19.996	103.301	20.269	4.170	0.455
130.500	143.750	80.008	19.994	103.295	20.270	4.092	0.447
131.000	144.006	79.998	19.996	103.294	20.268	4.222	0.451
131.500	144.253	79.995	19.995	103.293	20.273	3.883	0.481
132.000	144.495	79.998	19.995	103.293	20.271	3.987	0.496
132.500	144.715	80.002	19.995	103.289	20.268	4.220	0.475
133.000	144.924	80.005	19.995	103.289	20.270	4.100	0.446
133.500	145.181	80.005	19.994	103.288	20.269	4.198	0.448
134.000	145.429	80.005	19.995	103.288	20.270	4.120	0.486
134.500	145.656	79.994	19.996	103.287	20.269	4.184	0.490
135.000	145.921	80.001	19.995	103.285	20.268	4.235	0.483
135.500	146.174	80.005	19.994	103.286	20.268	4.245	0.505
136.000	146.403	80.003	19.996	103.286	20.271	4.000	0.500
136.500	146.642	80.006	19.994	103.286	20.267	4.285	0.475
137.000	146.915	80.023	19.992	103.286	20.264	4.547	0.490
137.500	147.093	79.996	19.994	103.293	20.267	4.283	0.482
138.000	147.379	80.011	19.993	103.292	20.269	4.146	0.457
138.500	147.602	79.991	19.997	103.294	20.269	4.172	0.486
139.000	147.878	80.001	19.995	103.292	20.267	4.331	0.505
139.500	148.070	80.004	19.994	103.292	20.266	4.413	0.484
140.000	148.340	79.977	19.996	103.288	20.267	4.319	0.465
140.500	148.604	80.008	19.994	103.290	20.264	4.540	0.498
141.000	148.867	80.008	19.996	103.294	20.268	4.248	0.530
141.500	149.111	80.002	19.997	103.298	20.269	4.186	0.517
142.001	149.333	79.997	19.996	103.297	20.266	4.401	0.486
142.500	149.551	79.997	19.995	103.297	20.268	4.212	0.453
143.000	149.848	80.017	19.994	103.296	20.270	4.068	0.477
143.500	150.077	80.004	19.996	103.296	20.264	4.496	0.520
144.000	150.309	79.996	19.998	103.294	20.263	4.580	0.494
144.500	150.574	80.015	19.995	103.292	20.265	4.443	0.479
145.000	150.856	80.006	19.997	103.293	20.266	4.379	0.522
145.500	151.062	80.007	19.996	103.291	20.265	4.426	0.518
146.000	151.304	80.003	19.996	103.288	20.268	4.267	0.469
146.500	151.514	80.005	19.995	103.288	20.267	4.295	0.450
147.000	151.800	80.001	19.996	103.292	20.268	4.227	0.473
147.500	152.028	79.995	19.997	103.292	20.271	4.042	0.505
148.000	152.242	80.001	19.995	103.293	20.268	4.241	0.479
148.500	152.515	80.006	19.996	103.292	20.269	4.201	0.464
149.000	152.753	79.970	19.998	103.292	20.269	4.146	0.499
149.500	153.035	79.996	19.994	103.287	20.273	3.876	0.515
150.000	153.240	80.004	19.996	103.288	20.266	4.353	0.503
150.500	153.498	80.001	19.996	103.290	20.270	4.066	0.475
151.000	153.738	80.001	19.996	103.289	20.269	4.140	0.481
151.500	154.008	80.011	19.994	103.288	20.268	4.253	0.504
152.000	154.272	79.995	19.997	103.294	20.268	4.267	0.522
152.500	154.509	80.014	19.995	103.290	20.266	4.363	0.518
153.000	154.773	80.003	19.997	103.291	20.270	4.112	0.501
153.500	154.974	79.998	19.997	103.291	20.272	3.964	0.483
154.000	155.233	80.003	19.995	103.288	20.270	4.116	0.463
154.500	155.465	79.995	19.996	103.286	20.267	4.321	0.476
155.000	155.726	79.996	19.996	103.288	20.268	4.219	0.492
155.500	155.920	80.004	19.995	103.285	20.263	4.606	0.474
156.000	156.184	79.987	19.999	103.285	20.268	4.239	0.456
156.500	156.464	79.999	19.996	103.282	20.265	4.431	0.501
157.000	156.698	80.022	19.992	103.277	20.264	4.522	0.529
157.500	156.938	79.995	19.995	103.281	20.268	4.257	0.494
158.000	157.194	80.001	19.996	103.280	20.266	4.391	0.485
158.500	157.449	80.005	19.994	103.279	20.267	4.291	0.504
159.000	157.666	79.996	19.998	103.286	20.269	4.161	0.492
159.500	157.985	80.010	19.994	103.286	20.271	4.044	0.504
160.000	158.186	80.009	19.995	103.285	20.266	4.350	0.528
160.500	158.499	80.002	19.995	103.283	20.271	4.045	0.517
161.000	158.709	80.011	19.993	103.283	20.268	4.219	0.518
161.500	158.954	80.000	19.995	103.283	20.267	4.324	0.489
162.000	159.201	80.004	19.996	103.285	20.268	4.249	0.473
162.500	159.488	80.021	19.993	103.280	20.266	4.380	0.513
163.000	159.746	80.008	19.994	103.284	20.268	4.211	0.540
163.500	159.955	80.008	19.995	103.285	20.271	4.011	0.506
164.000	160.235	80.012	19.994	103.284	20.266	4.366	0.478
164.500	160.515	80.011	19.993	103.287	20.270	4.095	0.525
165.000	160.737	80.011	19.994	103.293	20.268	4.231	0.531
165.500	160.955	79.995	19.997	103.292	20.267	4.327	0.471
166.000	161.209	79.988	19.995	103.286	20.265	4.428	0.456
166.500	161.534	80.004	19.993	103.286	20.266	4.366	0.526
167.000	161.728	80.016	19.993	103.288	20.264	4.499	0.549
167.500	162.023	80.013	19.995	103.287	20.270	4.083	0.504
168.000	162.210	79.997	19.994	103.285	20.267	4.288	0.486
168.500	162.462	79.996	19.995	103.291	20.266	4.354	0.461
169.000	162.732	80.017	19.993	103.288	20.268	4.257	0.481
169.500	162.985	79.995	19.996	103.283	20.269	4.189	0.522
170.000	163.261	80.008	19.996	103.278	20.268	4.237	0.526
170.500	163.519	79.986	19.995	103.275	20.267	4.304	0.531
171.000	163.734	79.984	19.996	103.275	20.268	4.232	0.504
171.500	164.070	80.014	19.991	103.273	20.267	4.336	0.512
172.000	164.312	80.004	19.995	103.273	20.265	4.493	0.565
