Sample ID:	C:\MCC\MCC Cal\Test\FDNY_LDF_MCC_30K_min_211208_R2.txt
Sample Weight (mg):	4.55
Heating Rate (C/s):	0.5
Combustor Temp (C):	900
N2 Flow Rate (cc/min):	80
O2 Flow Rate (cc/min):	20
Calibration File:	C:\MCC\MCC Cal\Coeff1 JN10440_30_210304.txt.txt
T Correction Coefficients:	0	1.024463	0
Time Shift (s):	14
*
Time (s)	Temperature (C)	N2 flow rate (cc/min)	O2 flow rate (cc/min)	Flow Rate (cc/min)	Oxygen (%)	HRR (W/g)	Heating rate (C/s)
0.000	108.843	80.009	19.996	103.067	20.224	-0.455	-0.004
0.500	108.848	80.006	19.996	103.067	20.220	-0.146	-0.003
1.000	108.860	80.005	19.997	103.067	20.221	-0.178	0.013
1.500	108.873	80.006	19.995	103.067	20.220	-0.135	0.021
2.001	108.846	80.006	19.995	103.068	20.219	-0.047	0.006
2.501	108.867	80.006	19.995	103.065	20.216	0.146	-0.010
3.000	108.848	80.005	19.995	103.064	20.218	-0.020	-0.003
3.500	108.820	80.005	19.995	103.065	20.216	0.125	-0.023
4.000	108.865	80.005	19.995	103.065	20.216	0.178	-0.015
4.500	108.839	80.006	19.997	103.062	20.219	-0.062	0.018
5.000	108.873	80.005	19.995	103.059	20.219	-0.070	0.014
5.500	108.848	80.006	19.996	103.060	20.216	0.176	0.009
6.000	108.851	80.006	19.997	103.066	20.218	-0.027	-0.007
6.500	108.842	80.007	19.995	103.072	20.218	0.021	-0.014
7.000	108.852	80.006	19.995	103.078	20.216	0.131	-0.002
7.500	108.830	80.007	19.993	103.083	20.216	0.160	-0.005
8.000	108.874	80.007	19.994	103.088	20.217	0.061	0.005
8.500	108.844	80.006	19.996	103.089	20.215	0.197	0.018
9.000	108.887	80.007	19.993	103.092	20.216	0.152	0.014
9.500	108.894	80.008	19.994	103.100	20.216	0.168	0.032
10.001	108.867	80.007	19.996	103.108	20.214	0.314	0.015
10.501	108.856	80.006	19.996	103.116	20.213	0.387	-0.029
11.000	108.872	80.006	19.996	103.122	20.212	0.455	-0.016
11.500	108.885	80.008	19.992	103.119	20.208	0.732	0.017
12.000	108.893	80.006	19.997	103.098	20.210	0.562	0.025
12.500	108.888	80.006	19.994	103.089	20.208	0.685	0.012
13.000	108.890	80.006	19.994	103.086	20.212	0.436	-0.000
13.501	108.926	80.008	19.993	103.086	20.210	0.590	0.017
14.001	108.930	80.007	19.994	103.096	20.207	0.752	0.039
14.500	108.918	80.007	19.994	103.133	20.208	0.680	0.016
15.000	108.916	80.009	19.996	103.170	20.210	0.588	-0.011
15.500	108.928	80.007	19.995	103.175	20.211	0.483	-0.002
16.000	108.947	80.008	19.995	103.175	20.209	0.635	0.021
16.500	108.919	80.008	19.995	103.175	20.209	0.627	0.011
17.001	108.970	80.008	19.995	103.161	20.207	0.756	0.007
17.502	108.950	80.007	19.994	103.139	20.208	0.733	0.027
18.000	109.000	80.007	19.993	103.139	20.206	0.883	0.030
18.500	108.990	80.006	19.996	103.141	20.208	0.717	0.034
19.000	109.026	80.007	19.995	103.146	20.206	0.821	0.033
19.500	109.036	80.008	19.994	103.151	20.207	0.780	0.036
20.000	109.069	80.008	19.995	103.150	20.205	0.901	0.045
20.500	109.088	80.006	19.995	103.155	20.203	1.030	0.048
21.000	109.093	80.007	19.995	103.159	20.204	1.022	0.038
21.500	109.117	80.007	19.994	103.161	20.204	1.022	0.026
22.000	109.114	80.008	19.993	103.163	20.203	1.049	0.025
22.500	109.162	80.007	19.996	103.169	20.203	1.079	0.033
23.000	109.201	80.008	19.994	103.178	20.200	1.278	0.066
23.500	109.211	80.008	19.993	103.189	20.200	1.294	0.068
24.001	109.267	80.006	19.995	103.207	20.197	1.505	0.057
24.501	109.300	80.007	19.996	103.221	20.195	1.650	0.078
25.000	109.294	80.005	19.995	103.230	20.198	1.394	0.058
25.500	109.358	80.006	19.993	103.235	20.197	1.460	0.042
26.000	109.356	80.006	19.996	103.238	20.197	1.515	0.060
26.500	109.419	80.007	19.994	103.238	20.190	2.005	0.061
27.000	109.441	80.008	19.995	103.239	20.192	1.845	0.073
27.500	109.479	80.007	19.995	103.245	20.190	1.951	0.073
28.000	109.538	80.007	19.993	103.247	20.191	1.880	0.079
28.500	109.614	80.006	19.994	103.251	20.190	1.957	0.116
29.000	109.654	80.006	19.995	103.252	20.189	2.029	0.125
29.500	109.732	80.008	19.994	103.252	20.188	2.092	0.117
30.000	109.751	80.006	19.993	103.252	20.189	2.049	0.108
30.500	109.807	80.008	19.993	103.252	20.187	2.227	0.086
31.000	109.865	80.006	19.994	103.252	20.188	2.133	0.094
31.500	109.934	80.007	19.994	103.253	20.185	2.315	0.120
32.001	109.991	80.007	19.995	103.254	20.187	2.162	0.126
32.501	110.063	80.007	19.994	103.256	20.186	2.299	0.128
33.001	110.139	80.007	19.994	103.259	20.186	2.235	0.139
33.500	110.195	80.007	19.993	103.263	20.185	2.338	0.140
34.000	110.287	80.007	19.993	103.269	20.185	2.358	0.140
34.500	110.338	80.007	19.994	103.275	20.184	2.411	0.145
35.000	110.384	80.007	19.995	103.281	20.184	2.401	0.119
35.500	110.472	80.008	19.995	103.279	20.185	2.368	0.115
36.000	110.546	80.008	19.995	103.279	20.184	2.377	0.148
36.500	110.630	80.008	19.996	103.278	20.187	2.209	0.160
37.000	110.700	80.007	19.993	103.278	20.183	2.463	0.156
37.501	110.768	80.007	19.994	103.279	20.182	2.547	0.146
38.002	110.831	80.007	19.995	103.287	20.183	2.461	0.134
38.501	110.916	80.008	19.994	103.291	20.179	2.749	0.139
39.000	111.059	80.009	19.994	103.294	20.175	3.034	0.188
39.500	111.095	80.008	19.993	103.295	20.179	2.770	0.204
40.000	111.185	80.010	19.994	103.296	20.176	2.953	0.152
40.501	111.244	80.010	19.994	103.302	20.177	2.896	0.138
41.001	111.376	80.009	19.996	103.310	20.180	2.700	0.170
41.500	111.474	80.008	19.993	103.314	20.179	2.790	0.210
42.000	111.580	80.006	19.994	103.319	20.174	3.086	0.217
42.500	111.665	80.007	19.994	103.320	20.179	2.745	0.198
43.000	111.743	80.006	19.995	103.317	20.176	2.947	0.177
43.500	111.862	80.007	19.995	103.315	20.177	2.930	0.180
44.000	111.969	80.008	19.995	103.310	20.175	3.028	0.211
44.500	112.113	80.009	19.995	103.311	20.176	2.977	0.238
45.000	112.193	80.007	19.995	103.311	20.175	3.027	0.237
45.500	112.287	80.007	19.994	103.309	20.178	2.854	0.199
46.001	112.418	80.008	19.994	103.305	20.174	3.085	0.200
46.501	112.486	80.008	19.993	103.308	20.174	3.112	0.212
47.000	112.605	80.007	19.994	103.304	20.179	2.796	0.193
47.500	112.726	80.007	19.993	103.307	20.175	3.060	0.213
48.000	112.873	80.006	19.996	103.311	20.174	3.097	0.254
48.501	112.970	80.006	19.995	103.310	20.177	2.929	0.255
49.001	113.104	80.005	19.996	103.312	20.175	3.082	0.237
49.500	113.202	80.005	19.995	103.320	20.174	3.121	0.232
50.000	113.369	80.006	19.995	103.307	20.173	3.223	0.249
50.500	113.477	80.007	19.996	103.280	20.170	3.404	0.269
51.000	113.598	80.006	19.997	103.266	20.172	3.242	0.251
51.500	113.750	80.006	19.994	103.253	20.172	3.262	0.251
52.000	113.865	80.004	19.995	103.236	20.173	3.158	0.270
52.500	113.960	80.005	19.994	103.244	20.175	3.047	0.239
53.000	114.069	80.005	19.995	103.280	20.174	3.115	0.207
53.500	114.248	80.006	19.995	103.328	20.172	3.273	0.246
54.000	114.364	80.007	19.997	103.349	20.174	3.123	0.291
54.500	114.476	80.006	19.995	103.362	20.172	3.254	0.261
55.000	114.641	80.005	19.995	103.364	20.173	3.162	0.253
55.500	114.754	80.005	19.995	103.353	20.174	3.129	0.278
56.000	114.917	80.005	19.996	103.319	20.174	3.135	0.277
56.500	115.050	80.005	19.995	103.306	20.174	3.100	0.286
57.001	115.178	80.005	19.996	103.301	20.174	3.098	0.279
57.501	115.344	80.006	19.995	103.306	20.174	3.150	0.277
58.000	115.485	80.006	19.994	103.309	20.172	3.270	0.301
58.501	115.611	80.006	19.993	103.315	20.174	3.105	0.287
59.001	115.754	80.005	19.996	103.322	20.173	3.166	0.268
59.501	115.905	80.005	19.995	103.327	20.175	3.035	0.281
60.000	116.072	80.006	19.996	103.328	20.175	3.064	0.306
60.500	116.212	80.006	19.996	103.329	20.174	3.103	0.313
61.000	116.362	80.007	19.996	103.329	20.173	3.181	0.299
61.500	116.491	80.006	19.995	103.329	20.175	3.078	0.284
62.000	116.697	80.006	19.995	103.328	20.174	3.115	0.307
62.500	116.841	80.004	19.996	103.327	20.173	3.187	0.343
63.000	117.007	80.006	19.996	103.327	20.172	3.271	0.330
63.500	117.135	80.005	19.995	103.328	20.174	3.101	0.302
64.000	117.297	80.005	19.995	103.327	20.172	3.262	0.292
64.500	117.444	80.005	19.997	103.326	20.174	3.107	0.299
65.000	117.629	80.005	19.994	103.327	20.171	3.305	0.321
65.500	117.789	80.007	19.997	103.328	20.174	3.146	0.338
66.001	117.953	80.006	19.995	103.333	20.173	3.158	0.335
66.501	118.107	80.006	19.996	103.338	20.173	3.193	0.321
67.000	118.233	80.005	19.994	103.341	20.172	3.256	0.299
67.500	118.484	80.005	19.995	103.342	20.177	2.894	0.328
68.000	118.632	80.006	19.996	103.341	20.174	3.090	0.388
68.501	118.782	80.006	19.996	103.335	20.173	3.178	0.349
69.001	118.956	80.005	19.994	103.332	20.170	3.381	0.312
69.500	119.123	80.005	19.996	103.331	20.171	3.299	0.332
70.000	119.323	80.006	19.995	103.330	20.174	3.092	0.354
70.500	119.437	80.005	19.997	103.329	20.172	3.260	0.341
71.000	119.627	80.006	19.997	103.330	20.174	3.138	0.309
71.500	119.800	80.006	19.996	103.330	20.174	3.115	0.333
72.000	119.971	80.004	19.995	103.327	20.173	3.219	0.353
72.500	120.180	80.005	19.996	103.328	20.171	3.299	0.362
73.000	120.334	80.005	19.995	103.328	20.172	3.256	0.371
73.500	120.557	80.006	19.996	103.328	20.171	3.303	0.370
74.000	120.697	80.005	19.995	103.328	20.170	3.399	0.370
74.500	120.868	80.005	19.995	103.328	20.174	3.133	0.337
75.000	121.073	80.005	19.995	103.328	20.173	3.187	0.344
75.500	121.292	80.005	19.994	103.327	20.173	3.170	0.400
76.000	121.421	80.006	19.993	103.327	20.174	3.099	0.386
76.500	121.622	80.004	19.996	103.327	20.172	3.264	0.338
77.000	121.797	80.005	19.994	103.327	20.170	3.397	0.353
77.500	121.983	80.006	19.997	103.327	20.171	3.356	0.369
78.000	122.189	80.004	19.997	103.327	20.168	3.553	0.377
78.500	122.405	80.005	19.996	103.328	20.171	3.344	0.407
79.000	122.579	80.006	19.996	103.329	20.170	3.422	0.406
79.500	122.816	80.006	19.996	103.329	20.170	3.379	0.401
80.001	123.011	80.005	19.997	103.329	20.170	3.436	0.422
80.501	123.178	80.004	19.995	103.329	20.170	3.416	0.397
81.000	123.397	80.004	19.996	103.329	20.172	3.248	0.374
81.500	123.606	80.005	19.996	103.328	20.170	3.424	0.407
82.000	123.789	80.005	19.997	103.327	20.170	3.414	0.410
82.500	123.908	80.005	19.995	103.328	20.167	3.590	0.347
83.000	124.130	80.005	19.995	103.329	20.172	3.291	0.322
83.501	124.295	80.006	19.996	103.330	20.171	3.365	0.364
84.001	124.538	80.004	19.994	103.331	20.174	3.103	0.398
84.500	124.744	80.004	19.995	103.331	20.172	3.238	0.428
85.000	124.943	80.005	19.995	103.331	20.173	3.180	0.426
85.500	125.143	80.005	19.995	103.331	20.173	3.215	0.402
86.000	125.294	80.004	19.995	103.330	20.171	3.311	0.375
86.500	125.539	80.005	19.996	103.330	20.173	3.221	0.373
87.001	125.728	80.006	19.996	103.331	20.176	3.002	0.415
87.501	125.933	80.005	19.996	103.335	20.174	3.123	0.414
88.000	126.093	80.005	19.995	103.336	20.173	3.213	0.380
88.500	126.325	80.006	19.994	103.336	20.175	3.062	0.379
89.000	126.524	80.004	19.995	103.336	20.176	2.951	0.411
89.500	126.740	80.007	19.995	103.336	20.176	2.998	0.423
90.000	126.991	80.005	19.995	103.336	20.174	3.090	0.441
90.500	127.169	80.006	19.995	103.336	20.174	3.129	0.448
91.000	127.372	80.005	19.995	103.336	20.168	3.526	0.405
91.500	127.542	80.006	19.995	103.336	20.173	3.158	0.378
92.000	127.716	80.008	19.994	103.336	20.171	3.340	0.358
92.500	127.967	80.007	19.994	103.334	20.173	3.213	0.384
93.000	128.170	80.007	19.995	103.334	20.172	3.277	0.440
93.500	128.389	80.005	19.995	103.335	20.173	3.221	0.439
94.000	128.601	80.006	19.994	103.336	20.171	3.340	0.427
94.500	128.829	80.006	19.995	103.336	20.169	3.459	0.435
95.000	129.003	80.006	19.995	103.335	20.173	3.203	0.421
95.500	129.234	80.007	19.996	103.335	20.169	3.483	0.403
96.000	129.442	80.008	19.995	103.337	20.171	3.307	0.422
96.500	129.654	80.008	19.995	103.340	20.170	3.436	0.430
97.000	129.845	80.008	19.997	103.341	20.168	3.559	0.412
97.500	130.119	80.007	19.992	103.340	20.169	3.498	0.435
98.000	130.300	80.008	19.995	103.340	20.168	3.516	0.460
98.500	130.549	80.007	19.994	103.339	20.168	3.545	0.442
99.000	130.793	80.007	19.994	103.337	20.166	3.696	0.461
99.500	130.941	80.007	19.994	103.335	20.165	3.755	0.443
100.000	131.171	80.006	19.994	103.336	20.167	3.586	0.385
100.500	131.369	80.006	19.994	103.339	20.162	3.954	0.403
101.000	131.628	80.006	19.996	103.339	20.166	3.680	0.442
101.500	131.870	80.006	19.994	103.338	20.164	3.796	0.479
102.000	132.079	80.007	19.995	103.339	20.168	3.520	0.476
102.501	132.272	80.006	19.995	103.339	20.168	3.559	0.427
103.001	132.535	80.006	19.995	103.337	20.168	3.571	0.429
103.500	132.758	80.005	19.995	103.336	20.166	3.655	0.471
104.000	132.958	80.007	19.996	103.335	20.167	3.584	0.454
104.500	133.197	80.006	19.994	103.334	20.165	3.743	0.431
105.000	133.379	80.006	19.993	103.336	20.168	3.541	0.430
105.500	133.591	80.006	19.994	103.336	20.170	3.420	0.407
106.000	133.855	80.007	19.994	103.336	20.169	3.496	0.435
106.500	134.072	80.006	19.994	103.335	20.173	3.203	0.479
107.000	134.302	80.004	19.994	103.334	20.171	3.342	0.464
107.501	134.515	80.005	19.995	103.332	20.169	3.446	0.445
108.001	134.715	80.006	19.993	103.332	20.169	3.501	0.428
108.500	134.929	80.006	19.995	103.332	20.168	3.557	0.414
109.000	135.181	80.007	19.995	103.333	20.168	3.522	0.440
109.500	135.402	80.006	19.995	103.334	20.167	3.589	0.469
110.000	135.617	80.006	19.993	103.333	20.170	3.373	0.454
110.500	135.857	80.005	19.995	103.334	20.171	3.305	0.446
111.001	136.088	80.008	19.996	103.334	20.172	3.231	0.463
111.501	136.304	80.007	19.994	103.333	20.172	3.266	0.459
112.000	136.533	80.006	19.994	103.332	20.169	3.442	0.446
112.500	136.766	80.007	19.994	103.334	20.172	3.228	0.453
113.001	137.005	80.007	19.994	103.334	20.170	3.379	0.467
113.501	137.215	80.006	19.995	103.334	20.170	3.367	0.460
114.000	137.467	80.007	19.995	103.333	20.168	3.531	0.456
114.500	137.669	80.008	19.994	103.333	20.170	3.381	0.458
115.000	137.919	80.007	19.995	103.331	20.169	3.445	0.453
115.500	138.175	80.007	19.992	103.331	20.172	3.232	0.479
116.000	138.361	80.006	19.995	103.330	20.169	3.461	0.474
116.500	138.621	80.007	19.992	103.329	20.170	3.381	0.444
117.000	138.863	80.008	19.997	103.329	20.171	3.340	0.474
117.501	139.105	80.007	19.995	103.329	20.172	3.277	0.493
118.001	139.350	80.008	19.993	103.328	20.173	3.170	0.485
118.500	139.536	80.008	19.993	103.333	20.172	3.291	0.459
119.000	139.824	80.007	19.994	103.338	20.170	3.432	0.453
119.500	140.048	80.009	19.994	103.339	20.172	3.289	0.493
120.001	140.274	80.007	19.993	103.341	20.171	3.307	0.481
120.501	140.534	80.009	19.995	103.342	20.169	3.496	0.468
121.001	140.780	80.009	19.995	103.340	20.168	3.516	0.496
121.501	141.015	80.007	19.995	103.335	20.170	3.377	0.494
122.001	141.243	80.009	19.993	103.335	20.171	3.357	0.472
122.501	141.460	80.008	19.994	103.335	20.172	3.283	0.454
123.001	141.712	80.008	19.996	103.333	20.174	3.103	0.457
123.500	141.941	80.008	19.993	103.331	20.172	3.250	0.475
124.000	142.188	80.008	19.993	103.331	20.172	3.295	0.479
124.500	142.473	80.008	19.994	103.330	20.172	3.277	0.504
125.000	142.740	80.007	19.993	103.328	20.172	3.285	0.542
125.500	142.928	80.006	19.996	103.328	20.170	3.367	0.503
126.000	143.204	80.008	19.996	103.329	20.170	3.412	0.460
126.500	143.421	80.007	19.995	103.329	20.171	3.326	0.479
127.000	143.661	80.007	19.996	103.329	20.172	3.246	0.474
127.500	143.936	80.007	19.998	103.329	20.172	3.269	0.486
128.000	144.163	80.009	19.995	103.329	20.171	3.344	0.509
128.500	144.413	80.008	19.997	103.327	20.172	3.271	0.489
129.000	144.688	80.007	19.995	103.327	20.174	3.093	0.501
129.500	144.914	80.007	19.995	103.330	20.171	3.357	0.513
130.000	145.141	80.008	19.994	103.333	20.170	3.416	0.477
130.500	145.389	80.006	19.994	103.334	20.172	3.281	0.463
131.000	145.671	80.005	19.996	103.332	20.175	3.017	0.503
131.500	145.893	80.006	19.996	103.332	20.168	3.524	0.518
132.000	146.162	80.005	19.996	103.330	20.171	3.338	0.497
132.501	146.404	80.006	19.997	103.326	20.169	3.455	0.500
133.001	146.645	80.006	19.994	103.325	20.169	3.443	0.497
133.500	146.839	80.006	19.995	103.327	20.169	3.455	0.459
134.000	147.103	80.006	19.995	103.327	20.170	3.375	0.446
134.500	147.326	80.006	19.996	103.328	20.167	3.619	0.473
135.000	147.608	80.006	19.996	103.328	20.169	3.504	0.496
135.500	147.853	80.007	19.995	103.328	20.168	3.539	0.516
136.000	148.095	80.006	19.995	103.329	20.168	3.514	0.507
136.500	148.354	80.007	19.997	103.329	20.168	3.539	0.494
137.000	148.621	80.006	19.995	103.329	20.170	3.383	0.513
137.500	148.890	80.006	19.996	103.328	20.170	3.373	0.531
138.000	149.090	80.006	19.996	103.328	20.172	3.281	0.503
138.500	149.347	80.006	19.995	103.327	20.169	3.437	0.463
139.000	149.604	80.005	19.996	103.327	20.173	3.162	0.485
139.500	149.849	80.006	19.995	103.327	20.172	3.228	0.508
140.000	150.079	80.006	19.997	103.327	20.173	3.201	0.489
140.500	150.345	80.005	19.997	103.326	20.172	3.275	0.486
141.000	150.573	80.006	19.994	103.326	20.170	3.390	0.495
141.500	150.840	80.004	19.998	103.326	20.170	3.379	0.495
142.000	151.097	80.007	19.998	103.325	20.171	3.304	0.509
142.500	151.322	80.005	19.995	103.325	20.170	3.385	0.502
143.000	151.584	80.006	19.997	103.326	20.169	3.471	0.484
143.500	151.811	80.006	19.998	103.325	20.171	3.336	0.488
144.000	152.111	80.005	19.996	103.323	20.168	3.555	0.508
144.500	152.348	80.007	19.995	103.323	20.170	3.369	0.532
145.000	152.559	80.006	19.994	103.323	20.170	3.402	0.492
145.500	152.855	80.004	19.997	103.322	20.169	3.455	0.477
146.000	153.092	80.005	19.995	103.323	20.171	3.326	0.520
146.500	153.309	80.006	19.995	103.325	20.170	3.408	0.494
147.000	153.578	80.007	19.995	103.325	20.174	3.109	0.470
147.500	153.820	80.005	19.995	103.325	20.170	3.410	0.499
148.000	154.069	80.004	19.995	103.326	20.174	3.130	0.501
148.500	154.297	80.005	19.994	103.325	20.170	3.427	0.484
149.000	154.542	80.005	19.996	103.322	20.169	3.461	0.475
149.500	154.816	80.006	19.994	103.321	20.169	3.472	0.496
150.000	155.046	80.006	19.996	103.321	20.170	3.388	0.512
150.500	155.292	80.006	19.997	103.321	20.172	3.294	0.490
151.000	155.552	80.006	19.996	103.321	20.171	3.298	0.491
151.500	155.786	80.004	19.996	103.323	20.168	3.562	0.500
152.000	156.057	80.006	19.994	103.322	20.171	3.365	0.499
152.500	156.308	80.005	19.996	103.322	20.170	3.412	0.514
153.000	156.550	80.005	19.996	103.320	20.168	3.519	0.508
153.500	156.843	80.005	19.997	103.320	20.169	3.498	0.514
154.000	157.108	80.004	19.995	103.320	20.172	3.261	0.546
154.500	157.317	80.006	19.995	103.323	20.169	3.494	0.516
155.000	157.572	80.005	19.995	103.323	20.171	3.312	0.469
155.500	157.825	80.006	19.995	103.324	20.170	3.415	0.486
156.000	158.054	80.004	19.994	103.323	20.171	3.359	0.495
156.500	158.302	80.005	19.995	103.320	20.170	3.372	0.480
157.000	158.555	80.006	19.995	103.313	20.168	3.562	0.489
157.500	158.787	80.005	19.995	103.310	20.169	3.505	0.493
158.000	159.050	80.007	19.995	103.312	20.167	3.580	0.490
158.500	159.330	80.005	19.995	103.312	20.167	3.634	0.519
159.000	159.557	80.005	19.995	103.309	20.165	3.775	0.524
159.500	159.779	80.004	19.995	103.314	20.171	3.308	0.478
160.000	160.064	80.004	19.994	103.315	20.169	3.453	0.478
160.500	160.327	80.004	19.994	103.311	20.170	3.421	0.528
161.000	160.642	80.005	19.995	103.310	20.168	3.558	0.563
161.500	160.842	80.005	19.995	103.314	20.168	3.525	0.546
162.000	161.074	80.004	19.994	103.314	20.167	3.586	0.473
162.500	161.353	80.004	19.995	103.315	20.168	3.562	0.472
163.000	161.597	80.005	19.996	103.316	20.168	3.553	0.517
163.500	161.830	80.005	19.996	103.317	20.171	3.310	0.500
164.000	162.070	80.004	19.995	103.315	20.170	3.426	0.475
164.501	162.340	80.004	19.996	103.311	20.170	3.384	0.492
165.001	162.626	80.004	19.995	103.309	20.169	3.466	0.533
165.501	162.833	80.004	19.995	103.307	20.168	3.515	0.524
166.000	163.075	80.004	19.996	103.305	20.170	3.369	0.471
166.500	163.331	80.004	19.995	103.304	20.168	3.517	0.474
167.000	163.586	80.004	19.996	103.305	20.169	3.462	0.505
167.500	163.849	80.005	19.995	103.306	20.167	3.593	0.514
168.000	164.137	80.004	19.995	103.305	20.168	3.542	0.534
168.500	164.363	80.003	19.996	103.306	20.167	3.591	0.532
169.000	164.590	80.004	19.996	103.308	20.169	3.497	0.484
169.500	164.818	80.004	19.996	103.309	20.170	3.405	0.454
170.000	165.097	80.005	19.996	103.308	20.170	3.384	0.481
170.500	165.404	80.003	19.995	103.312	20.170	3.421	0.546
171.000	165.618	80.005	19.994	103.314	20.169	3.485	0.553
171.500	165.853	80.003	19.995	103.313	20.167	3.647	0.485
172.000	166.103	80.004	19.997	103.313	20.167	3.610	0.467
172.500	166.382	80.007	19.996	103.313	20.164	3.808	0.507
