Sample ID:	C:\MCC\MCC Cal\Test\FDNY_LDF_MCC_30K_min_211207_R1.txt
Sample Weight (mg):	4.05
Heating Rate (C/s):	0.5
Combustor Temp (C):	900
N2 Flow Rate (cc/min):	80
O2 Flow Rate (cc/min):	20
Calibration File:	C:\MCC\MCC Cal\Coeff1 JN10440_30_210304.txt.txt
T Correction Coefficients:	0	1.024463	0
Time Shift (s):	14
*
Time (s)	Temperature (C)	N2 flow rate (cc/min)	O2 flow rate (cc/min)	Flow Rate (cc/min)	Oxygen (%)	HRR (W/g)	Heating rate (C/s)
0.000	112.554	80.013	19.993	103.053	20.171	-0.329	0.002
0.500	112.574	80.005	19.995	103.055	20.171	-0.383	0.005
1.000	112.545	79.993	19.996	103.057	20.172	-0.398	0.002
1.500	112.619	80.024	19.991	103.054	20.170	-0.234	0.018
2.000	112.549	79.997	19.996	103.056	20.167	-0.056	0.024
2.500	112.574	80.003	19.994	103.057	20.168	-0.136	-0.020
3.000	112.527	80.000	19.996	103.054	20.165	0.106	-0.033
3.500	112.538	79.998	19.993	103.050	20.169	-0.167	-0.029
4.001	112.567	80.008	19.994	103.052	20.169	-0.154	0.002
4.500	112.518	79.996	19.996	103.049	20.168	-0.089	0.010
5.000	112.584	79.999	19.995	103.044	20.168	-0.067	-0.001
5.500	112.603	80.010	19.992	103.045	20.168	-0.080	0.051
6.001	112.552	80.016	19.992	103.053	20.167	-0.013	0.026
6.500	112.530	79.979	19.996	103.055	20.168	-0.091	-0.053
7.000	112.546	79.997	19.994	103.052	20.166	0.015	-0.040
7.500	112.506	80.001	19.995	103.057	20.166	0.050	-0.015
8.000	112.564	79.993	19.994	103.058	20.165	0.147	-0.003
8.500	112.559	80.003	19.994	103.055	20.168	-0.138	0.036
9.000	112.528	80.009	19.995	103.056	20.167	-0.045	0.008
9.500	112.532	80.005	19.994	103.060	20.168	-0.115	-0.032
10.000	112.512	80.013	19.993	103.059	20.165	0.164	-0.021
10.500	112.513	79.995	19.995	103.061	20.166	0.089	-0.018
11.000	112.542	80.014	19.993	103.059	20.166	0.076	0.005
11.501	112.508	80.010	19.995	103.061	20.169	-0.167	0.012
12.001	112.536	80.008	19.993	103.060	20.165	0.121	-0.005
12.500	112.493	80.004	19.995	103.061	20.163	0.273	-0.010
13.000	112.522	79.999	19.995	103.058	20.165	0.138	-0.014
13.500	112.587	80.013	19.992	103.060	20.165	0.171	0.040
14.000	112.511	79.997	19.995	103.061	20.164	0.182	0.041
14.500	112.536	80.009	19.994	103.058	20.165	0.136	-0.031
15.000	112.559	79.996	19.996	103.056	20.162	0.379	-0.002
15.500	112.527	79.994	19.996	103.054	20.160	0.532	0.019
16.000	112.503	79.994	19.994	103.052	20.161	0.454	-0.032
16.500	112.507	80.019	19.993	103.058	20.160	0.526	-0.037
17.000	112.504	79.988	19.997	103.063	20.164	0.249	-0.009
17.500	112.511	80.005	19.994	103.055	20.164	0.206	0.002
18.000	112.504	80.012	19.995	103.052	20.163	0.294	0.002
18.500	112.493	79.995	19.995	103.054	20.162	0.366	-0.009
19.000	112.514	80.000	19.995	103.042	20.162	0.351	-0.004
19.500	112.524	80.005	19.995	103.038	20.163	0.275	0.020
20.000	112.508	80.006	19.993	103.050	20.161	0.455	0.012
20.500	112.499	79.993	19.995	103.063	20.161	0.431	-0.015
21.000	112.500	79.997	19.997	103.070	20.160	0.533	-0.016
21.500	112.488	79.997	19.998	103.074	20.163	0.327	-0.009
22.000	112.500	80.007	19.993	103.076	20.160	0.518	-0.006
22.500	112.550	80.012	19.991	103.083	20.160	0.554	0.031
23.000	112.529	80.004	19.995	103.091	20.157	0.784	0.045
23.500	112.574	80.016	19.993	103.099	20.156	0.840	0.027
24.000	112.532	79.989	19.995	103.113	20.159	0.615	0.014
24.500	112.563	80.003	19.993	103.124	20.154	1.003	-0.004
25.001	112.572	80.007	19.993	103.130	20.157	0.782	0.014
25.500	112.617	80.022	19.992	103.129	20.155	0.895	0.047
26.000	112.588	79.997	19.995	103.132	20.155	0.905	0.035
26.500	112.571	79.999	19.994	103.134	20.153	1.068	-0.015
27.000	112.609	79.997	19.994	103.138	20.152	1.131	-0.013
27.500	112.634	80.012	19.993	103.142	20.151	1.233	0.042
28.000	112.641	80.003	19.994	103.144	20.151	1.252	0.048
28.500	112.671	80.017	19.993	103.149	20.153	1.120	0.035
29.000	112.664	79.997	19.997	103.156	20.148	1.477	0.030
29.500	112.685	79.986	19.995	103.157	20.147	1.568	0.018
30.000	112.716	80.000	19.993	103.161	20.150	1.356	0.033
30.500	112.789	79.995	19.995	103.166	20.148	1.508	0.078
31.000	112.753	80.002	19.995	103.172	20.143	1.909	0.071
31.500	112.847	79.998	19.995	103.175	20.145	1.750	0.047
32.000	112.870	79.997	19.994	103.186	20.145	1.759	0.088
32.500	112.874	79.981	19.997	103.193	20.142	1.956	0.072
33.001	112.952	80.001	19.995	103.195	20.142	1.932	0.055
33.501	113.023	80.004	19.994	103.197	20.138	2.296	0.116
34.000	113.075	80.010	19.991	103.202	20.136	2.407	0.136
34.500	113.083	79.992	19.993	103.211	20.135	2.481	0.091
35.000	113.148	80.010	19.993	103.215	20.137	2.349	0.066
35.500	113.183	79.996	19.995	103.225	20.136	2.437	0.087
36.001	113.243	80.006	19.994	103.229	20.134	2.585	0.098
36.501	113.245	80.004	19.994	103.235	20.132	2.791	0.079
37.001	113.308	79.994	19.995	103.234	20.131	2.845	0.063
37.501	113.380	79.994	19.994	103.237	20.132	2.795	0.100
38.000	113.426	79.992	19.995	103.238	20.133	2.706	0.126
38.500	113.499	79.988	19.994	103.240	20.133	2.687	0.118
39.000	113.560	79.999	19.995	103.240	20.133	2.711	0.126
39.500	113.632	80.014	19.992	103.241	20.133	2.641	0.134
40.000	113.707	79.996	19.994	103.246	20.128	3.090	0.140
40.500	113.773	80.000	19.992	103.247	20.129	2.975	0.144
41.000	113.817	79.998	19.996	103.251	20.128	3.073	0.125
41.501	113.897	79.994	19.995	103.249	20.127	3.160	0.117
42.001	113.985	79.996	19.996	103.246	20.127	3.144	0.146
42.500	114.066	80.012	19.993	103.241	20.129	2.993	0.168
43.000	114.108	80.004	19.994	103.244	20.127	3.164	0.146
43.501	114.206	80.000	19.995	103.239	20.127	3.144	0.131
44.001	114.312	80.000	19.994	103.240	20.124	3.413	0.172
44.500	114.377	80.004	19.993	103.245	20.125	3.296	0.188
45.000	114.419	79.987	19.995	103.251	20.125	3.296	0.139
45.500	114.521	79.993	19.995	103.253	20.129	3.007	0.125
46.001	114.591	80.002	19.996	103.255	20.126	3.270	0.158
46.501	114.680	80.002	19.995	103.258	20.127	3.129	0.166
47.000	114.751	80.011	19.994	103.257	20.124	3.382	0.160
47.500	114.852	79.991	19.995	103.256	20.125	3.315	0.166
48.000	114.915	80.006	19.993	103.254	20.127	3.192	0.168
48.500	115.043	80.002	19.994	103.259	20.127	3.131	0.178
49.000	115.155	80.008	19.994	103.263	20.124	3.411	0.215
49.500	115.233	79.995	19.996	103.269	20.123	3.444	0.215
50.000	115.322	80.007	19.993	103.267	20.126	3.240	0.178
50.500	115.428	79.994	19.993	103.270	20.123	3.472	0.181
51.000	115.529	79.989	19.996	103.272	20.126	3.227	0.201
51.500	115.645	80.007	19.992	103.270	20.126	3.244	0.212
52.000	115.771	80.007	19.994	103.273	20.127	3.168	0.230
52.500	115.895	79.997	19.994	103.280	20.125	3.350	0.246
53.000	116.010	79.995	19.994	103.278	20.125	3.330	0.244
53.500	116.090	80.005	19.993	103.277	20.125	3.313	0.217
54.000	116.193	80.004	19.993	103.277	20.122	3.577	0.189
54.500	116.321	80.007	19.993	103.269	20.126	3.233	0.207
55.001	116.437	80.006	19.993	103.263	20.120	3.703	0.238
55.501	116.547	79.996	19.993	103.265	20.123	3.476	0.235
56.000	116.668	80.009	19.992	103.266	20.121	3.632	0.228
56.500	116.785	80.004	19.993	103.266	20.122	3.584	0.235
57.000	116.949	79.997	19.994	103.268	20.119	3.754	0.260
57.500	117.028	79.999	19.995	103.266	20.122	3.580	0.262
58.000	117.160	80.001	19.993	103.266	20.125	3.348	0.227
58.500	117.332	80.010	19.994	103.267	20.122	3.539	0.257
59.000	117.411	79.987	19.996	103.269	20.120	3.710	0.277
59.500	117.570	80.028	19.990	103.268	20.124	3.426	0.245
60.000	117.704	80.001	19.994	103.280	20.123	3.461	0.266
60.500	117.813	80.003	19.994	103.284	20.120	3.727	0.268
61.000	117.937	80.004	19.992	103.283	20.120	3.699	0.237
61.500	118.104	79.999	19.994	103.279	20.122	3.514	0.262
62.000	118.251	80.003	19.995	103.280	20.124	3.413	0.303
62.501	118.384	80.003	19.992	103.273	20.121	3.610	0.298
63.001	118.499	80.001	19.995	103.268	20.121	3.608	0.264
63.501	118.627	80.003	19.994	103.264	20.123	3.470	0.245
64.001	118.770	80.003	19.993	103.264	20.121	3.610	0.257
64.500	118.892	79.998	19.995	103.265	20.118	3.838	0.268
65.000	119.077	80.008	19.995	103.264	20.117	3.938	0.286
65.500	119.175	80.008	19.994	103.261	20.121	3.615	0.295
66.000	119.310	80.007	19.994	103.267	20.121	3.615	0.258
66.500	119.479	80.003	19.991	103.271	20.118	3.852	0.269
67.000	119.645	80.003	19.993	103.276	20.119	3.765	0.320
67.500	119.790	80.002	19.992	103.278	20.120	3.706	0.323
68.000	119.878	79.999	19.995	103.284	20.119	3.814	0.272
68.500	120.042	80.030	19.991	103.279	20.120	3.706	0.242
69.000	120.209	79.995	19.994	103.285	20.119	3.758	0.292
69.500	120.349	79.997	19.993	103.280	20.118	3.836	0.319
70.000	120.495	79.980	19.996	103.281	20.121	3.610	0.296
70.500	120.651	80.017	19.991	103.272	20.120	3.676	0.294
71.001	120.820	79.967	19.996	103.278	20.118	3.888	0.313
71.501	120.952	79.998	19.994	103.266	20.120	3.684	0.313
72.000	121.145	80.004	19.993	103.263	20.117	3.978	0.314
72.500	121.283	79.995	19.994	103.266	20.118	3.911	0.328
73.000	121.439	79.984	19.996	103.272	20.116	4.002	0.312
73.500	121.608	80.007	19.995	103.270	20.120	3.688	0.310
74.000	121.776	80.024	19.990	103.277	20.120	3.710	0.332
74.501	121.895	79.993	19.995	103.284	20.118	3.834	0.312
75.001	122.058	80.019	19.991	103.276	20.118	3.905	0.285
75.500	122.212	79.999	19.994	103.280	20.116	4.066	0.300
76.000	122.397	80.021	19.992	103.283	20.118	3.834	0.327
76.500	122.559	80.005	19.992	103.286	20.120	3.723	0.343
77.000	122.710	80.012	19.994	103.290	20.119	3.773	0.331
77.500	122.920	80.005	19.994	103.297	20.119	3.812	0.337
78.000	123.041	80.009	19.994	103.296	20.116	4.013	0.345
78.500	123.216	79.987	19.997	103.296	20.115	4.134	0.313
79.000	123.343	80.011	19.992	103.290	20.123	3.502	0.299
79.500	123.566	80.006	19.993	103.288	20.117	3.957	0.326
80.000	123.705	80.010	19.993	103.291	20.120	3.736	0.356
80.500	123.842	80.002	19.996	103.289	20.122	3.556	0.320
81.001	124.023	80.012	19.993	103.283	20.117	3.929	0.297
81.501	124.224	79.992	19.995	103.286	20.117	3.914	0.350
82.000	124.370	79.995	19.997	103.277	20.118	3.877	0.364
82.500	124.562	80.008	19.993	103.269	20.121	3.671	0.343
83.000	124.728	80.005	19.992	103.268	20.114	4.180	0.348
83.500	124.934	80.024	19.992	103.273	20.117	3.931	0.365
84.000	125.045	80.011	19.993	103.276	20.118	3.864	0.345
84.500	125.272	80.010	19.993	103.283	20.115	4.111	0.327
85.000	125.391	80.008	19.994	103.291	20.119	3.799	0.342
85.500	125.561	80.005	19.994	103.291	20.120	3.732	0.318
86.000	125.771	79.997	19.994	103.292	20.115	4.137	0.335
86.500	125.953	80.009	19.994	103.289	20.119	3.786	0.386
87.000	126.137	80.000	19.996	103.289	20.119	3.799	0.379
87.500	126.318	79.995	19.995	103.285	20.119	3.831	0.366
88.000	126.464	80.012	19.994	103.286	20.117	3.990	0.346
88.500	126.666	79.989	19.997	103.281	20.116	4.046	0.338
89.001	126.876	80.004	19.996	103.277	20.114	4.224	0.380
89.501	127.044	79.994	19.995	103.272	20.115	4.089	0.395
90.000	127.244	79.999	19.995	103.272	20.115	4.081	0.373
90.501	127.447	79.998	19.994	103.271	20.117	3.981	0.386
91.001	127.619	79.996	19.996	103.275	20.117	3.938	0.389
91.501	127.768	79.980	19.997	103.279	20.115	4.148	0.348
92.000	127.939	79.988	19.997	103.278	20.113	4.230	0.321
92.500	128.150	79.991	19.995	103.275	20.113	4.245	0.351
93.000	128.374	80.006	19.994	103.275	20.116	4.057	0.409
93.500	128.563	80.002	19.993	103.275	20.113	4.263	0.424
94.000	128.747	80.001	19.992	103.277	20.118	3.849	0.393
94.501	128.905	80.032	19.992	103.283	20.115	4.105	0.357
95.001	129.113	80.005	19.996	103.292	20.113	4.239	0.354
95.501	129.269	79.996	19.994	103.292	20.113	4.265	0.366
96.000	129.525	79.998	19.994	103.289	20.117	3.988	0.388
96.500	129.706	80.014	19.993	103.287	20.116	4.005	0.424
97.000	129.850	79.989	19.997	103.287	20.117	3.989	0.381
97.500	130.050	80.009	19.994	103.277	20.113	4.232	0.335
98.000	130.254	80.007	19.992	103.279	20.115	4.078	0.374
98.500	130.422	79.999	19.993	103.281	20.113	4.243	0.388
99.001	130.617	79.998	19.995	103.282	20.115	4.100	0.368
99.501	130.841	80.006	19.992	103.279	20.114	4.213	0.391
100.000	130.993	79.997	19.996	103.286	20.110	4.477	0.397
100.500	131.222	80.014	19.993	103.284	20.113	4.289	0.379
101.000	131.428	80.010	19.993	103.285	20.110	4.501	0.408
101.500	131.671	80.015	19.994	103.285	20.113	4.260	0.442
102.000	131.822	79.994	19.997	103.290	20.110	4.484	0.422
102.500	131.995	79.987	19.997	103.285	20.116	3.998	0.359
103.000	132.219	79.995	19.994	103.283	20.111	4.443	0.361
103.500	132.425	80.015	19.992	103.283	20.113	4.263	0.413
104.000	132.596	79.996	19.995	103.282	20.114	4.193	0.403
104.500	132.805	80.009	19.994	103.278	20.114	4.215	0.379
105.000	133.037	80.011	19.995	103.282	20.113	4.248	0.410
105.500	133.194	79.998	19.996	103.286	20.113	4.300	0.414
106.000	133.387	80.005	19.995	103.285	20.114	4.194	0.369
106.500	133.562	80.020	19.992	103.284	20.114	4.170	0.359
107.000	133.810	79.996	19.996	103.286	20.113	4.252	0.395
107.500	133.998	79.992	19.996	103.282	20.116	4.001	0.429
108.000	134.222	80.009	19.993	103.278	20.115	4.146	0.424
108.500	134.433	79.996	19.994	103.280	20.112	4.354	0.424
109.000	134.617	80.004	19.994	103.278	20.114	4.190	0.415
109.500	134.841	80.004	19.993	103.278	20.112	4.331	0.402
110.000	135.033	79.998	19.995	103.282	20.114	4.179	0.412
110.500	135.256	79.995	19.996	103.284	20.112	4.389	0.415
111.000	135.464	80.004	19.994	103.279	20.114	4.224	0.422
111.500	135.677	80.000	19.995	103.281	20.116	4.070	0.426
112.000	135.848	79.994	19.996	103.282	20.115	4.092	0.403
112.500	136.063	79.991	19.997	103.281	20.114	4.181	0.385
113.000	136.252	80.001	19.994	103.281	20.114	4.205	0.395
113.500	136.477	79.997	19.996	103.284	20.113	4.246	0.409
114.000	136.672	79.994	19.995	103.284	20.113	4.302	0.417
114.500	136.919	80.009	19.994	103.282	20.112	4.352	0.432
115.000	137.092	80.004	19.993	103.285	20.111	4.430	0.431
115.501	137.357	80.014	19.993	103.290	20.113	4.293	0.429
116.001	137.556	80.006	19.993	103.293	20.111	4.469	0.451
116.501	137.729	80.024	19.991	103.294	20.110	4.473	0.418
117.001	137.954	79.994	19.994	103.298	20.112	4.330	0.384
117.500	138.165	80.000	19.995	103.295	20.112	4.376	0.417
118.000	138.411	79.986	19.995	103.295	20.109	4.556	0.447
118.500	138.600	80.016	19.991	103.291	20.110	4.521	0.446
119.000	138.824	80.003	19.993	103.295	20.111	4.436	0.424
119.500	139.052	80.024	19.991	103.293	20.108	4.690	0.432
120.000	139.290	80.001	19.992	103.300	20.110	4.482	0.459
120.500	139.476	79.996	19.994	103.300	20.110	4.514	0.445
121.000	139.690	80.008	19.993	103.300	20.113	4.237	0.412
121.500	139.892	80.009	19.993	103.296	20.112	4.350	0.408
122.000	140.136	80.000	19.994	103.296	20.109	4.562	0.431
122.500	140.362	80.005	19.993	103.292	20.110	4.515	0.458
123.000	140.596	80.007	19.993	103.291	20.112	4.322	0.465
123.500	140.792	80.002	19.995	103.292	20.112	4.369	0.445
124.000	141.020	80.010	19.993	103.291	20.113	4.261	0.427
124.500	141.219	80.000	19.993	103.292	20.110	4.519	0.426
125.000	141.475	80.009	19.993	103.291	20.112	4.322	0.441
125.500	141.675	79.999	19.994	103.291	20.110	4.475	0.455
126.000	141.908	80.015	19.993	103.291	20.109	4.560	0.444
126.500	142.121	80.010	19.992	103.293	20.113	4.304	0.439
127.000	142.350	80.005	19.992	103.294	20.112	4.336	0.445
127.500	142.580	80.004	19.993	103.295	20.114	4.193	0.451
128.000	142.740	80.002	19.994	103.296	20.112	4.328	0.424
128.500	143.005	80.003	19.993	103.296	20.112	4.376	0.407
129.000	143.205	80.000	19.995	103.296	20.113	4.263	0.445
129.500	143.417	80.005	19.994	103.293	20.113	4.263	0.438
130.000	143.676	79.999	19.994	103.290	20.113	4.306	0.441
130.500	143.914	80.004	19.994	103.288	20.112	4.335	0.484
131.000	144.143	80.001	19.995	103.289	20.113	4.281	0.482
131.500	144.356	80.007	19.993	103.287	20.111	4.458	0.454
132.000	144.591	80.004	19.994	103.290	20.111	4.452	0.445
132.500	144.789	79.989	19.994	103.293	20.111	4.462	0.440
133.000	145.051	80.005	19.993	103.293	20.109	4.551	0.446
133.500	145.304	79.993	19.994	103.292	20.109	4.595	0.487
134.000	145.505	80.003	19.992	103.291	20.111	4.397	0.485
134.500	145.722	80.018	19.992	103.289	20.110	4.497	0.436
135.000	145.954	80.013	19.993	103.291	20.109	4.618	0.433
135.500	146.192	79.987	19.996	103.294	20.110	4.543	0.459
136.000	146.383	79.985	19.996	103.293	20.111	4.449	0.450
136.500	146.671	80.005	19.995	103.289	20.111	4.456	0.454
137.000	146.902	79.995	19.995	103.290	20.106	4.800	0.499
137.500	147.120	80.010	19.992	103.284	20.108	4.687	0.484
138.000	147.363	80.002	19.994	103.284	20.109	4.618	0.455
138.500	147.528	79.997	19.993	103.285	20.108	4.696	0.435
139.000	147.846	80.001	19.995	103.289	20.107	4.737	0.445
139.500	148.050	79.993	19.993	103.287	20.108	4.679	0.502
140.000	148.281	79.995	19.995	103.290	20.104	4.984	0.478
140.500	148.523	80.007	19.992	103.289	20.108	4.636	0.454
141.000	148.760	79.984	19.995	103.292	20.106	4.852	0.476
141.500	149.027	79.999	19.993	103.291	20.108	4.675	0.492
142.000	149.254	80.009	19.992	103.294	20.108	4.690	0.499
142.500	149.503	80.009	19.993	103.295	20.107	4.757	0.485
143.000	149.717	80.011	19.993	103.292	20.106	4.813	0.469
143.500	149.949	80.005	19.994	103.291	20.105	4.935	0.454
144.000	150.209	80.007	19.994	103.292	20.104	4.989	0.469
144.500	150.432	79.990	19.996	103.291	20.103	5.043	0.488
145.000	150.665	80.015	19.992	103.287	20.105	4.878	0.469
145.500	150.854	79.999	19.994	103.291	20.106	4.811	0.439
146.000	151.100	79.998	19.993	103.288	20.105	4.880	0.429
146.500	151.360	79.999	19.995	103.289	20.109	4.603	0.471
147.000	151.607	80.005	19.993	103.286	20.110	4.516	0.506
147.500	151.802	80.000	19.993	103.288	20.104	4.954	0.474
148.000	152.015	79.997	19.997	103.284	20.107	4.762	0.425
148.500	152.300	80.003	19.995	103.281	20.110	4.523	0.454
149.000	152.524	79.989	19.998	103.279	20.106	4.829	0.504
149.500	152.762	80.011	19.992	103.276	20.110	4.547	0.485
150.000	153.017	80.004	19.994	103.277	20.106	4.798	0.477
150.500	153.250	80.008	19.992	103.277	20.107	4.777	0.490
151.000	153.468	79.998	19.992	103.283	20.107	4.735	0.470
151.500	153.722	80.002	19.997	103.283	20.108	4.640	0.462
152.000	153.934	80.011	19.994	103.287	20.108	4.640	0.469
152.500	154.168	79.996	19.994	103.286	20.105	4.893	0.456
153.000	154.398	80.009	19.993	103.286	20.105	4.900	0.455
153.500	154.595	80.003	19.994	103.286	20.104	4.952	0.445
154.000	154.881	79.998	19.994	103.286	20.106	4.807	0.455
154.500	155.160	80.011	19.992	103.286	20.108	4.675	0.524
155.000	155.321	79.998	19.996	103.291	20.107	4.731	0.502
155.500	155.564	79.998	19.995	103.288	20.106	4.809	0.422
156.000	155.837	80.004	19.995	103.282	20.108	4.698	0.461
156.500	156.095	80.015	19.993	103.279	20.106	4.800	0.524
157.000	156.309	80.004	19.994	103.282	20.106	4.800	0.501
157.500	156.589	80.029	19.991	103.278	20.106	4.787	0.483
158.000	156.830	79.991	19.995	103.285	20.105	4.872	0.507
158.500	157.050	80.000	19.995	103.287	20.104	5.024	0.491
159.000	157.335	80.003	19.992	103.290	20.107	4.783	0.483
159.500	157.579	80.007	19.992	103.287	20.104	5.026	0.517
160.000	157.799	80.009	19.992	103.290	20.103	5.097	0.497
160.500	158.059	80.017	19.992	103.287	20.107	4.746	0.472
161.000	158.315	80.008	19.996	103.291	20.104	5.006	0.498
161.500	158.584	79.985	19.995	103.290	20.102	5.114	0.521
162.000	158.812	80.004	19.993	103.288	20.104	4.977	0.511
162.500	159.067	80.007	19.993	103.286	20.103	5.094	0.490
163.000	159.267	79.999	19.995	103.286	20.105	4.880	0.469
163.500	159.528	80.008	19.994	103.282	20.105	4.934	0.458
164.000	159.806	79.996	19.993	103.284	20.103	5.066	0.500
164.500	160.025	80.001	19.994	103.288	20.105	4.917	0.518
165.000	160.295	80.013	19.994	103.286	20.106	4.828	0.492
165.501	160.528	80.000	19.993	103.283	20.104	4.949	0.496
166.000	160.793	80.004	19.994	103.284	20.109	4.585	0.501
166.500	161.016	79.979	19.997	103.283	20.106	4.824	0.493
167.000	161.282	80.001	19.994	103.277	20.105	4.891	0.489
167.500	161.547	80.003	19.994	103.276	20.105	4.939	0.510
168.000	161.740	80.006	19.995	103.278	20.106	4.854	0.495
168.500	162.008	80.006	19.993	103.278	20.107	4.748	0.460
169.000	162.252	80.013	19.994	103.279	20.104	5.012	0.487
169.500	162.500	79.999	19.996	103.286	20.104	5.021	0.502
170.000	162.772	80.003	19.994	103.288	20.106	4.854	0.506
170.500	162.985	80.004	19.995	103.287	20.107	4.728	0.502
171.000	163.280	80.003	19.996	103.287	20.103	5.068	0.497
171.500	163.512	80.000	19.995	103.285	20.107	4.709	0.518
172.000	163.798	80.001	19.994	103.279	20.107	4.709	0.522
172.500	164.030	80.002	19.995	103.275	20.107	4.748	0.518
