Sample ID:	C:\MCC\MCC Cal\Test\Rug_pad_MCC_30K_min_211013_R3.txt
Sample Weight (mg):	4.1
Heating Rate (C/s):	0.5
Combustor Temp (C):	900
N2 Flow Rate (cc/min):	80
O2 Flow Rate (cc/min):	20
Calibration File:	C:\MCC\MCC Cal\Coeff1 JN10440_30_210304.txt.txt
T Correction Coefficients:	0	1.024463	0
Time Shift (s):	14
*
Time (s)	Temperature (C)	N2 flow rate (cc/min)	O2 flow rate (cc/min)	Flow Rate (cc/min)	Oxygen (%)	HRR (W/g)	Heating rate (C/s)
0.000	108.931	79.991	19.995	103.299	20.077	-0.385	-0.001
0.500	108.952	79.989	19.996	103.293	20.077	-0.324	-0.011
1.000	108.921	79.991	19.997	103.294	20.076	-0.300	-0.007
1.500	108.917	79.991	19.997	103.299	20.080	-0.616	-0.022
2.000	108.909	79.989	19.997	103.299	20.077	-0.402	-0.023
2.500	108.922	79.989	19.995	103.300	20.075	-0.235	-0.003
3.000	108.911	79.990	19.997	103.302	20.074	-0.166	0.004
3.500	108.954	79.991	19.998	103.300	20.074	-0.127	0.017
4.000	108.948	79.988	19.996	103.298	20.078	-0.413	0.034
4.500	108.937	79.990	19.998	103.298	20.076	-0.246	0.010
5.000	108.965	79.990	19.996	103.301	20.079	-0.527	0.000
5.500	108.927	79.989	19.997	103.299	20.075	-0.171	0.004
6.000	108.904	79.989	19.997	103.296	20.074	-0.151	-0.035
6.500	108.890	79.989	19.996	103.291	20.073	-0.067	-0.049
7.000	108.914	79.990	19.998	103.286	20.076	-0.259	-0.013
7.500	108.922	79.989	19.996	103.283	20.075	-0.220	0.021
8.000	108.893	79.992	19.996	103.289	20.072	0.006	0.006
8.500	108.907	79.989	19.998	103.293	20.071	0.104	-0.018
9.001	108.916	79.989	19.997	103.300	20.074	-0.166	0.004
9.501	108.884	79.990	19.998	103.308	20.074	-0.121	-0.000
10.000	108.887	79.987	19.996	103.311	20.072	0.067	-0.026
10.500	108.890	79.989	19.998	103.313	20.076	-0.314	-0.012
11.000	108.906	79.987	19.996	103.313	20.078	-0.450	0.012
11.500	108.917	79.990	19.996	103.313	20.074	-0.160	0.023
12.000	108.907	79.989	19.998	103.314	20.072	-0.002	0.014
12.501	108.902	79.988	19.997	103.316	20.070	0.179	-0.007
13.001	108.904	79.990	19.996	103.315	20.071	0.112	-0.009
13.500	108.906	79.988	19.997	103.314	20.069	0.281	0.001
14.000	108.907	79.987	19.997	103.314	20.070	0.151	0.004
14.500	108.934	79.988	19.995	103.314	20.070	0.173	0.015
15.000	108.929	79.991	19.996	103.316	20.067	0.448	0.025
15.500	108.966	79.991	19.996	103.323	20.063	0.742	0.027
16.000	108.923	79.989	19.997	103.331	20.065	0.584	0.013
16.500	108.920	79.989	19.997	103.341	20.064	0.636	-0.026
17.000	108.908	79.989	19.997	103.350	20.061	0.898	-0.030
17.500	108.961	79.991	19.996	103.353	20.064	0.690	0.013
18.000	108.978	79.988	19.996	103.356	20.064	0.653	0.055
18.500	108.964	79.989	19.996	103.361	20.063	0.757	0.037
19.000	108.939	79.988	19.997	103.368	20.059	1.047	-0.018
19.500	108.995	79.988	19.998	103.375	20.060	0.969	-0.004
20.000	108.995	79.989	19.996	103.383	20.055	1.387	0.043
20.500	109.010	79.989	19.997	103.395	20.061	0.887	0.036
21.000	109.019	79.990	19.998	103.402	20.056	1.318	0.020
21.500	109.059	79.989	19.998	103.404	20.053	1.536	0.037
22.000	109.066	79.989	19.996	103.405	20.055	1.350	0.049
22.500	109.058	79.991	19.996	103.408	20.055	1.341	0.023
23.001	109.105	79.990	19.997	103.408	20.057	1.233	0.019
23.501	109.130	79.991	19.996	103.410	20.055	1.402	0.055
24.000	109.149	79.990	19.997	103.415	20.053	1.512	0.058
24.500	109.174	79.990	19.997	103.423	20.054	1.408	0.044
25.000	109.250	79.991	19.998	103.427	20.052	1.607	0.072
25.500	109.234	79.991	19.997	103.429	20.049	1.874	0.080
26.000	109.297	79.990	19.997	103.435	20.045	2.170	0.054
26.500	109.318	79.990	19.997	103.442	20.047	2.027	0.066
27.000	109.346	79.991	19.997	103.444	20.049	1.869	0.067
27.500	109.392	79.992	19.997	103.445	20.050	1.735	0.061
28.000	109.421	79.991	19.996	103.450	20.046	2.107	0.075
28.500	109.435	79.992	19.996	103.452	20.043	2.302	0.059
29.000	109.510	79.991	19.995	103.445	20.044	2.198	0.066
29.500	109.540	79.990	19.996	103.449	20.048	1.908	0.097
30.000	109.576	79.990	19.996	103.457	20.043	2.284	0.085
30.500	109.630	79.990	19.996	103.459	20.047	2.001	0.078
31.000	109.720	79.990	19.996	103.461	20.042	2.404	0.117
31.500	109.726	79.989	19.997	103.469	20.045	2.187	0.120
32.001	109.792	79.990	19.998	103.470	20.044	2.213	0.084
32.500	109.881	79.990	19.997	103.470	20.042	2.384	0.113
33.000	109.911	79.989	19.997	103.470	20.039	2.603	0.138
33.500	109.927	79.988	19.996	103.470	20.042	2.423	0.083
34.000	109.995	79.989	19.997	103.470	20.041	2.493	0.065
34.500	110.032	79.988	19.998	103.469	20.045	2.155	0.094
35.000	110.112	79.991	19.998	103.470	20.038	2.696	0.111
35.500	110.191	79.990	19.997	103.470	20.039	2.662	0.138
36.000	110.265	79.989	19.997	103.471	20.039	2.655	0.156
36.500	110.323	79.990	19.998	103.477	20.034	2.997	0.143
37.000	110.392	79.991	19.997	103.483	20.039	2.666	0.129
37.501	110.483	79.991	19.999	103.483	20.042	2.415	0.143
38.001	110.531	79.988	19.997	103.479	20.038	2.710	0.149
38.501	110.598	79.990	19.997	103.471	20.039	2.617	0.128
39.000	110.687	79.987	19.998	103.459	20.041	2.461	0.136
39.500	110.751	79.991	19.996	103.453	20.038	2.671	0.154
40.001	110.842	79.990	19.997	103.450	20.038	2.727	0.154
40.501	110.900	79.990	19.997	103.453	20.041	2.446	0.152
41.001	110.988	79.989	19.997	103.460	20.038	2.680	0.147
41.500	111.081	79.991	19.998	103.464	20.038	2.710	0.164
42.000	111.156	79.987	19.997	103.466	20.039	2.651	0.175
42.500	111.238	79.990	19.998	103.468	20.044	2.214	0.163
43.001	111.324	79.989	19.998	103.471	20.040	2.589	0.163
43.501	111.377	79.991	19.996	103.471	20.038	2.679	0.153
44.001	111.481	79.991	19.997	103.475	20.034	2.987	0.148
44.501	111.574	79.992	19.997	103.480	20.039	2.660	0.177
45.000	111.636	79.992	19.996	103.481	20.034	3.021	0.176
45.500	111.717	79.989	19.996	103.480	20.039	2.640	0.149
46.001	111.827	79.992	19.997	103.486	20.038	2.738	0.167
46.501	111.956	79.990	19.995	103.491	20.040	2.530	0.215
47.001	112.032	79.989	19.996	103.494	20.036	2.880	0.222
47.501	112.113	79.991	19.996	103.501	20.036	2.837	0.181
48.000	112.196	79.991	19.996	103.508	20.035	2.956	0.161
48.501	112.319	79.991	19.996	103.511	20.037	2.785	0.185
49.001	112.455	79.991	19.996	103.510	20.035	2.926	0.232
49.500	112.505	79.991	19.995	103.510	20.035	2.978	0.222
50.000	112.627	79.991	19.995	103.515	20.032	3.209	0.179
50.500	112.738	79.992	19.997	103.515	20.027	3.584	0.203
51.000	112.815	79.991	19.996	103.515	20.032	3.145	0.210
51.500	112.925	79.991	19.997	103.516	20.035	2.958	0.188
52.000	113.029	79.991	19.997	103.515	20.033	3.127	0.201
52.500	113.120	79.991	19.995	103.511	20.031	3.298	0.205
53.000	113.276	79.993	19.993	103.509	20.034	2.985	0.221
53.500	113.355	79.992	19.996	103.509	20.028	3.504	0.241
54.000	113.469	79.991	19.997	103.509	20.033	3.119	0.214
54.500	113.633	79.992	19.996	103.509	20.027	3.560	0.235
55.000	113.721	79.992	19.996	103.509	20.032	3.214	0.264
55.500	113.836	79.992	19.999	103.509	20.033	3.106	0.227
56.000	113.982	79.992	19.995	103.508	20.032	3.210	0.232
56.500	114.104	79.993	19.996	103.504	20.038	2.721	0.265
57.000	114.176	79.993	19.996	103.501	20.036	2.894	0.232
57.501	114.335	79.988	19.996	103.498	20.033	3.082	0.212
58.001	114.452	79.989	19.998	103.494	20.032	3.166	0.253
58.500	114.583	79.993	19.996	103.488	20.035	2.967	0.262
59.000	114.697	79.993	19.996	103.488	20.036	2.900	0.247
59.500	114.843	79.991	19.996	103.491	20.034	3.021	0.253
60.000	114.972	79.992	19.996	103.492	20.037	2.818	0.268
60.500	115.075	79.990	19.997	103.497	20.037	2.820	0.254
61.000	115.207	79.990	19.996	103.502	20.038	2.712	0.234
61.500	115.345	79.988	19.996	103.504	20.035	2.963	0.252
62.000	115.471	79.991	19.997	103.503	20.033	3.071	0.267
62.501	115.598	79.990	19.996	103.504	20.035	2.974	0.259
63.001	115.731	79.990	19.997	103.504	20.042	2.379	0.257
63.501	115.865	79.988	19.997	103.506	20.040	2.560	0.264
64.000	115.984	79.991	19.998	103.506	20.036	2.840	0.260
64.501	116.134	79.990	19.997	103.508	20.038	2.690	0.261
65.001	116.260	79.989	19.996	103.508	20.035	2.969	0.272
65.500	116.420	79.991	19.998	103.508	20.033	3.069	0.281
66.000	116.539	79.990	19.997	103.508	20.034	3.030	0.282
66.500	116.697	79.989	19.997	103.508	20.034	3.047	0.278
67.000	116.845	79.987	19.997	103.507	20.034	3.008	0.291
67.500	116.975	79.990	19.996	103.508	20.033	3.127	0.292
68.000	117.139	79.990	19.997	103.508	20.031	3.227	0.286
68.500	117.256	79.991	19.998	103.506	20.036	2.900	0.288
69.000	117.463	79.989	19.997	103.506	20.039	2.653	0.303
69.500	117.582	79.991	19.996	103.507	20.035	2.945	0.325
70.000	117.684	79.988	19.998	103.506	20.036	2.844	0.273
70.500	117.859	79.990	19.996	103.506	20.040	2.571	0.249
71.000	118.005	79.990	19.996	103.508	20.034	2.987	0.300
71.500	118.139	79.991	19.998	103.507	20.036	2.855	0.301
72.000	118.277	79.990	19.997	103.506	20.034	3.002	0.276
72.500	118.462	79.989	19.997	103.506	20.035	2.974	0.297
73.000	118.635	79.992	19.997	103.507	20.036	2.837	0.340
73.500	118.741	79.989	19.997	103.506	20.036	2.829	0.318
74.000	118.893	79.990	19.997	103.507	20.038	2.720	0.269
74.500	119.048	79.991	19.998	103.507	20.036	2.831	0.283
75.000	119.199	79.990	19.995	103.507	20.037	2.788	0.307
75.501	119.391	79.989	19.995	103.506	20.035	2.924	0.324
76.001	119.528	79.990	19.996	103.506	20.038	2.720	0.336
76.500	119.633	79.992	19.997	103.504	20.034	3.036	0.285
77.001	119.812	79.989	19.996	103.502	20.039	2.662	0.263
77.501	119.980	79.988	19.997	103.501	20.035	2.916	0.316
78.001	120.141	79.989	19.997	103.502	20.037	2.812	0.338
78.501	120.282	79.991	19.998	103.502	20.034	3.063	0.315
79.000	120.446	79.992	19.994	103.501	20.039	2.613	0.304
79.500	120.598	79.991	19.996	103.503	20.035	2.974	0.311
80.000	120.733	79.990	19.998	103.504	20.037	2.757	0.301
80.500	120.920	79.990	19.996	103.503	20.034	3.043	0.305
81.001	121.073	79.990	19.996	103.503	20.039	2.643	0.331
81.501	121.271	79.993	19.997	103.504	20.036	2.857	0.345
82.000	121.406	79.991	19.996	103.503	20.036	2.855	0.342
82.500	121.585	79.991	19.997	103.503	20.035	2.970	0.324
83.000	121.712	79.989	19.997	103.504	20.038	2.682	0.310
83.500	121.900	79.991	19.996	103.505	20.037	2.786	0.311
84.000	122.034	79.993	19.996	103.503	20.039	2.595	0.318
84.500	122.202	79.992	19.996	103.504	20.038	2.747	0.312
85.000	122.420	79.990	19.996	103.504	20.034	3.039	0.344
85.500	122.524	79.988	19.996	103.504	20.037	2.805	0.354
86.000	122.698	79.992	19.996	103.505	20.033	3.084	0.300
86.500	122.843	79.990	19.996	103.508	20.036	2.829	0.299
87.000	123.063	79.989	19.996	103.507	20.035	2.974	0.342
87.500	123.241	79.991	19.996	103.507	20.036	2.868	0.381
88.000	123.385	79.991	19.996	103.515	20.037	2.810	0.360
88.500	123.562	79.991	19.997	103.519	20.038	2.691	0.321
89.000	123.718	79.992	19.996	103.525	20.035	2.957	0.327
89.500	123.896	79.993	19.996	103.526	20.035	2.918	0.334
90.000	124.052	79.990	19.996	103.523	20.033	3.067	0.335
90.501	124.233	79.992	19.996	103.516	20.039	2.602	0.336
91.001	124.389	79.986	19.996	103.511	20.036	2.886	0.337
91.501	124.592	79.989	19.997	103.506	20.036	2.862	0.347
92.001	124.727	79.991	19.997	103.506	20.033	3.076	0.348
92.500	124.949	79.991	19.997	103.510	20.037	2.775	0.347
93.000	125.065	79.990	19.996	103.510	20.035	2.974	0.348
93.500	125.227	79.990	19.998	103.514	20.038	2.714	0.308
94.000	125.426	79.989	19.996	103.519	20.032	3.201	0.320
94.500	125.613	79.992	19.996	103.519	20.033	3.136	0.374
95.000	125.765	79.988	19.996	103.520	20.034	3.052	0.362
95.500	125.941	79.990	19.997	103.520	20.036	2.885	0.333
96.000	126.147	79.990	19.999	103.514	20.033	3.101	0.355
96.500	126.306	79.991	19.997	103.510	20.033	3.088	0.373
97.000	126.489	79.989	19.997	103.510	20.034	3.023	0.354
97.501	126.703	79.990	19.997	103.511	20.038	2.729	0.370
98.001	126.862	79.989	19.999	103.516	20.031	3.255	0.385
98.500	127.004	79.989	19.997	103.518	20.030	3.331	0.337
99.000	127.175	79.990	19.997	103.518	20.027	3.537	0.307
99.500	127.387	79.991	19.999	103.519	20.034	3.017	0.348
100.001	127.552	79.990	19.999	103.525	20.032	3.151	0.380
100.501	127.716	79.991	19.997	103.524	20.035	2.926	0.353
101.001	127.901	79.991	19.996	103.529	20.038	2.742	0.339
101.501	128.105	79.991	19.996	103.530	20.037	2.775	0.369
102.000	128.296	79.989	19.995	103.529	20.032	3.184	0.392
102.500	128.443	79.989	19.997	103.521	20.037	2.788	0.367
103.000	128.648	79.990	19.998	103.516	20.035	2.959	0.345
103.500	128.822	79.990	19.997	103.511	20.033	3.087	0.366
104.001	129.048	79.989	19.997	103.513	20.031	3.245	0.390
104.501	129.215	79.991	19.998	103.512	20.033	3.093	0.397
105.001	129.406	79.993	19.997	103.512	20.035	2.918	0.375
105.500	129.552	79.991	19.996	103.511	20.034	3.011	0.347
106.000	129.753	79.991	19.996	103.506	20.034	3.060	0.342
106.500	129.957	79.992	19.997	103.503	20.031	3.277	0.376
107.000	130.130	79.990	19.997	103.503	20.032	3.203	0.391
107.500	130.320	79.989	19.998	103.504	20.033	3.136	0.370
108.000	130.505	79.993	19.993	103.505	20.032	3.212	0.369
108.500	130.655	79.990	19.997	103.511	20.030	3.327	0.354
109.000	130.880	79.993	19.996	103.513	20.033	3.134	0.355
109.500	131.040	79.992	19.996	103.512	20.033	3.095	0.380
110.000	131.243	79.992	19.995	103.512	20.037	2.758	0.374
110.500	131.460	79.992	19.997	103.511	20.033	3.097	0.391
111.000	131.633	79.991	19.997	103.511	20.031	3.225	0.405
111.500	131.813	79.991	19.997	103.510	20.031	3.294	0.372
112.000	131.996	79.992	19.995	103.511	20.031	3.225	0.358
112.500	132.212	79.990	19.997	103.513	20.031	3.296	0.381
113.000	132.346	79.992	19.997	103.516	20.032	3.160	0.374
113.501	132.576	79.990	19.996	103.517	20.028	3.469	0.357
114.001	132.754	79.989	19.996	103.517	20.032	3.149	0.386
114.500	132.948	79.990	19.997	103.517	20.032	3.143	0.390
115.001	133.153	79.991	19.997	103.515	20.033	3.136	0.385
115.501	133.374	79.991	19.995	103.513	20.037	2.801	0.413
116.000	133.543	79.990	19.996	103.512	20.035	2.957	0.408
116.501	133.712	79.990	19.996	103.512	20.037	2.821	0.364
117.001	133.918	79.993	19.995	103.511	20.033	3.117	0.357
117.500	134.110	79.991	19.998	103.511	20.031	3.262	0.387
118.000	134.309	79.991	19.997	103.511	20.034	3.002	0.395
118.500	134.470	79.991	19.995	103.513	20.036	2.866	0.375
119.000	134.693	79.989	19.996	103.516	20.036	2.861	0.372
119.500	134.881	79.990	19.997	103.519	20.037	2.749	0.397
120.000	135.096	79.990	19.998	103.518	20.034	3.030	0.407
120.500	135.253	79.991	19.996	103.518	20.032	3.210	0.387
121.000	135.472	79.991	19.996	103.516	20.035	2.907	0.374
121.500	135.634	79.989	19.997	103.514	20.035	2.937	0.379
122.000	135.861	79.990	19.998	103.514	20.035	2.941	0.385
122.500	136.060	79.989	19.997	103.514	20.036	2.887	0.407
123.000	136.222	79.989	19.997	103.514	20.035	2.924	0.393
123.500	136.480	79.988	19.998	103.513	20.035	2.922	0.391
124.000	136.655	79.989	19.997	103.513	20.033	3.136	0.427
124.500	136.852	79.989	19.996	103.512	20.038	2.680	0.403
125.000	137.102	79.990	19.998	103.514	20.030	3.303	0.409
125.500	137.259	79.990	19.996	103.517	20.035	2.944	0.427
126.000	137.471	79.988	19.998	103.519	20.036	2.903	0.388
126.500	137.681	79.992	19.997	103.519	20.031	3.249	0.396
127.000	137.851	79.990	19.997	103.522	20.034	3.032	0.401
127.501	138.096	79.992	19.997	103.524	20.035	2.956	0.397
128.001	138.305	79.993	19.998	103.522	20.036	2.829	0.435
128.500	138.477	79.990	19.997	103.522	20.031	3.270	0.418
129.000	138.647	79.991	19.998	103.521	20.037	2.820	0.362
129.500	138.908	79.991	19.998	103.517	20.033	3.074	0.386
130.000	139.109	79.990	19.997	103.514	20.031	3.286	0.446
130.500	139.324	79.993	19.996	103.515	20.036	2.868	0.439
131.000	139.501	79.991	19.998	103.513	20.033	3.141	0.404
131.500	139.729	79.992	19.998	103.515	20.030	3.331	0.398
132.000	139.940	79.993	19.996	103.514	20.033	3.076	0.422
132.500	140.145	79.990	19.996	103.513	20.034	3.031	0.428
133.000	140.335	79.992	19.998	103.512	20.034	3.052	0.406
133.500	140.546	79.991	19.997	103.518	20.033	3.128	0.398
134.000	140.743	79.993	19.997	103.516	20.033	3.139	0.404
134.500	141.000	79.992	19.999	103.515	20.030	3.347	0.431
135.000	141.208	79.994	19.997	103.516	20.035	2.925	0.460
135.500	141.405	79.993	19.997	103.517	20.036	2.896	0.435
136.000	141.654	79.994	19.999	103.516	20.030	3.351	0.425
136.500	141.815	79.989	19.996	103.517	20.032	3.206	0.428
137.000	142.000	79.992	19.996	103.516	20.029	3.429	0.378
137.500	142.217	79.992	19.996	103.516	20.031	3.243	0.374
138.000	142.432	79.992	19.996	103.514	20.030	3.323	0.417
138.500	142.647	79.993	19.996	103.507	20.030	3.358	0.431
139.000	142.885	79.992	19.995	103.507	20.029	3.453	0.441
139.500	143.059	79.989	19.998	103.509	20.029	3.390	0.433
140.000	143.307	79.994	19.995	103.513	20.028	3.483	0.418
140.500	143.509	79.990	19.996	103.515	20.032	3.145	0.436
141.000	143.717	79.993	19.996	103.521	20.029	3.392	0.429
141.500	143.957	79.992	19.996	103.521	20.029	3.441	0.429
142.000	144.143	79.990	19.996	103.520	20.034	2.989	0.437
142.500	144.365	79.991	19.997	103.520	20.032	3.176	0.417
143.000	144.616	79.989	19.996	103.524	20.030	3.377	0.441
143.500	144.830	79.990	19.999	103.525	20.036	2.836	0.470
144.000	145.040	79.990	19.997	103.532	20.031	3.250	0.445
144.500	145.222	79.990	19.996	103.537	20.034	3.057	0.408
145.000	145.454	79.990	19.999	103.538	20.033	3.091	0.403
145.500	145.710	79.990	19.996	103.532	20.028	3.511	0.451
146.000	145.877	79.991	19.995	103.529	20.032	3.202	0.455
146.500	146.125	79.989	19.996	103.530	20.031	3.247	0.419
147.000	146.354	79.988	19.997	103.527	20.030	3.364	0.446
147.500	146.575	79.989	19.997	103.523	20.031	3.245	0.464
148.000	146.748	79.987	19.998	103.526	20.032	3.158	0.422
148.500	147.007	79.989	19.996	103.527	20.032	3.154	0.413
149.000	147.221	79.991	19.996	103.527	20.028	3.503	0.452
149.500	147.383	79.990	19.997	103.530	20.030	3.312	0.424
150.000	147.638	79.990	19.998	103.533	20.027	3.550	0.396
150.500	147.831	79.992	19.996	103.533	20.030	3.334	0.433
151.000	148.041	79.990	19.996	103.529	20.030	3.367	0.426
151.500	148.290	79.990	19.996	103.521	20.031	3.299	0.431
152.000	148.476	79.991	19.996	103.515	20.031	3.232	0.447
152.500	148.764	79.989	19.998	103.513	20.026	3.622	0.454
153.000	148.963	79.991	19.997	103.519	20.033	3.126	0.480
153.500	149.200	79.987	19.996	103.525	20.029	3.420	0.462
154.000	149.408	79.991	19.997	103.532	20.030	3.334	0.441
154.500	149.617	79.990	19.996	103.535	20.030	3.314	0.431
155.000	149.854	79.989	19.995	103.538	20.029	3.409	0.432
155.500	150.060	79.987	19.996	103.536	20.030	3.336	0.445
156.000	150.337	79.990	19.996	103.534	20.030	3.371	0.463
156.500	150.588	79.986	19.996	103.533	20.031	3.278	0.506
157.000	150.796	79.990	19.996	103.532	20.029	3.442	0.493
157.501	151.021	79.988	19.996	103.528	20.029	3.433	0.446
158.001	151.201	79.991	19.997	103.524	20.027	3.556	0.419
158.501	151.454	79.990	19.996	103.521	20.028	3.468	0.419
159.000	151.682	79.990	19.997	103.517	20.028	3.515	0.457
159.500	151.885	79.989	19.996	103.520	20.027	3.583	0.456
160.000	152.110	79.990	19.996	103.528	20.028	3.479	0.430
160.500	152.396	79.989	19.997	103.535	20.029	3.431	0.469
161.000	152.569	79.990	19.996	103.538	20.029	3.438	0.485
161.500	152.813	79.987	19.997	103.542	20.029	3.392	0.438
162.000	153.066	79.989	19.997	103.543	20.034	3.050	0.457
162.500	153.223	79.990	19.998	103.539	20.030	3.368	0.453
163.000	153.512	79.988	19.998	103.533	20.029	3.399	0.428
163.500	153.701	79.990	19.996	103.533	20.034	3.028	0.462
164.000	153.950	79.989	19.996	103.528	20.030	3.366	0.458
164.500	154.172	79.990	19.995	103.524	20.029	3.405	0.455
165.000	154.413	79.989	19.997	103.525	20.028	3.481	0.468
165.500	154.654	79.990	19.997	103.530	20.027	3.542	0.473
166.000	154.870	79.989	19.998	103.530	20.031	3.258	0.469
166.501	155.102	79.991	19.995	103.532	20.029	3.384	0.452
167.000	155.321	79.991	19.996	103.533	20.029	3.457	0.450
167.500	155.550	79.992	19.995	103.532	20.030	3.334	0.450
168.000	155.801	79.990	19.996	103.528	20.030	3.349	0.464
168.500	155.991	79.989	19.997	103.524	20.030	3.375	0.460
169.000	156.226	79.991	19.995	103.522	20.031	3.297	0.433
169.500	156.484	79.991	19.996	103.525	20.032	3.212	0.459
170.000	156.731	79.989	19.996	103.526	20.029	3.401	0.499
170.500	156.940	79.987	19.995	103.529	20.031	3.281	0.481
171.000	157.214	79.989	19.997	103.536	20.031	3.283	0.470
171.500	157.427	79.989	19.998	103.535	20.030	3.355	0.485
172.000	157.662	79.990	19.995	103.535	20.031	3.294	0.468
172.500	157.870	79.990	19.996	103.533	20.032	3.156	0.446
