Sample ID:	C:\MCC\MCC Cal\Test\PUF_Mattress_Pad_MCC_30K_min_220110_R3.txt
Sample Weight (mg):	4.96
Heating Rate (C/s):	0.5
Combustor Temp (C):	900
N2 Flow Rate (cc/min):	80
O2 Flow Rate (cc/min):	20
Calibration File:	C:\MCC\MCC Cal\Coeff1 JN10440_30_210304.txt.txt
T Correction Coefficients:	0	1.024463	0
Time Shift (s):	14
*
Time (s)	Temperature (C)	N2 flow rate (cc/min)	O2 flow rate (cc/min)	Flow Rate (cc/min)	Oxygen (%)	HRR (W/g)	Heating rate (C/s)
0.000	110.552	80.004	19.994	104.064	20.137	-0.097	-0.021
0.500	110.528	80.002	19.993	104.064	20.138	-0.169	-0.015
1.000	110.525	80.003	19.996	104.064	20.136	-0.090	-0.018
1.500	110.520	80.005	19.995	104.064	20.137	-0.091	-0.017
2.000	110.537	80.003	19.997	104.063	20.134	0.077	0.002
2.500	110.546	80.004	19.994	104.064	20.133	0.108	0.019
3.000	110.531	80.003	19.996	104.065	20.139	-0.278	0.010
3.500	110.523	80.004	19.995	104.066	20.136	-0.077	-0.014
4.000	110.538	80.006	19.995	104.066	20.135	0.016	-0.008
4.500	110.534	80.003	19.995	104.066	20.135	0.029	0.009
5.000	110.565	80.005	19.994	104.065	20.137	-0.145	0.019
5.500	110.568	80.003	19.996	104.064	20.138	-0.221	0.030
6.000	110.541	80.006	19.991	104.063	20.137	-0.095	0.005
6.500	110.537	80.003	19.998	104.064	20.136	-0.074	-0.028
7.000	110.525	80.006	19.994	104.063	20.132	0.174	-0.023
7.500	110.555	80.005	19.996	104.063	20.135	0.032	0.001
8.000	110.567	80.003	19.994	104.063	20.134	0.045	0.030
8.500	110.538	80.005	19.996	104.063	20.136	-0.070	0.012
9.000	110.547	80.005	19.993	104.058	20.134	0.083	-0.019
9.500	110.538	80.004	19.994	104.059	20.133	0.126	-0.010
10.000	110.546	80.005	19.994	104.059	20.135	0.023	-0.000
10.500	110.547	80.007	19.992	104.059	20.132	0.197	0.004
11.000	110.547	80.004	19.994	104.060	20.132	0.205	0.005
11.500	110.571	80.004	19.995	104.064	20.135	-0.007	0.012
12.000	110.552	80.007	19.993	104.064	20.136	-0.027	0.014
12.500	110.572	80.005	19.993	104.064	20.136	-0.066	0.003
13.000	110.576	80.003	19.993	104.065	20.137	-0.115	0.013
13.499	110.552	80.004	19.995	104.065	20.134	0.054	0.002
13.999	110.561	80.001	19.994	104.065	20.132	0.212	-0.018
14.499	110.551	80.005	19.993	104.064	20.133	0.142	-0.009
14.999	110.554	80.004	19.993	104.065	20.131	0.295	-0.004
15.500	110.565	80.001	19.993	104.065	20.131	0.298	0.004
15.999	110.540	80.001	19.995	104.064	20.130	0.340	0.000
16.499	110.552	80.001	19.995	104.064	20.130	0.352	-0.013
17.000	110.542	80.002	19.996	104.069	20.130	0.345	-0.006
17.499	110.561	80.004	19.994	104.070	20.130	0.329	0.006
17.999	110.541	80.002	19.995	104.074	20.129	0.368	0.004
18.499	110.568	80.003	19.997	104.080	20.127	0.543	0.003
19.000	110.575	80.003	19.997	104.087	20.128	0.478	0.020
19.500	110.565	80.002	19.996	104.089	20.129	0.413	0.015
19.999	110.582	80.002	19.993	104.095	20.128	0.453	0.002
20.499	110.553	80.004	19.999	104.105	20.127	0.552	-0.002
20.999	110.548	80.005	19.994	104.112	20.125	0.650	-0.023
21.500	110.585	80.004	19.995	104.122	20.124	0.728	-0.001
22.000	110.595	80.004	19.993	104.131	20.119	1.046	0.039
22.500	110.574	80.001	19.998	104.140	20.121	0.900	0.018
23.000	110.602	80.003	19.997	104.147	20.120	0.961	-0.002
23.500	110.627	80.004	19.994	104.157	20.119	1.082	0.030
23.999	110.610	80.000	19.997	104.169	20.120	1.010	0.030
24.499	110.619	80.004	19.995	104.184	20.117	1.182	-0.000
24.999	110.649	80.003	19.995	104.200	20.114	1.392	0.016
25.499	110.665	80.005	19.994	104.212	20.114	1.362	0.043
26.000	110.697	80.007	19.994	104.220	20.114	1.398	0.048
26.500	110.696	80.000	20.004	104.225	20.113	1.457	0.039
27.000	110.782	80.005	19.993	104.225	20.109	1.721	0.057
27.500	110.746	80.004	19.996	104.230	20.110	1.617	0.067
28.000	110.803	80.005	19.994	104.236	20.111	1.588	0.036
28.499	110.802	80.007	19.995	104.243	20.107	1.853	0.039
28.999	110.844	80.002	19.995	104.250	20.104	2.020	0.049
29.500	110.903	80.001	19.994	104.256	20.103	2.106	0.071
30.000	110.943	80.003	19.997	104.256	20.104	2.043	0.100
30.499	110.964	80.006	19.996	104.252	20.107	1.836	0.080
30.999	110.988	80.008	19.996	104.247	20.103	2.108	0.052
31.499	111.057	80.008	19.995	104.240	20.105	1.993	0.069
31.999	111.125	80.007	19.995	104.234	20.101	2.235	0.115
32.499	111.146	80.006	19.994	104.230	20.104	2.050	0.113
32.999	111.218	80.004	19.996	104.227	20.108	1.783	0.091
33.499	111.298	80.007	19.994	104.224	20.105	1.953	0.123
33.999	111.346	80.008	19.990	104.224	20.104	2.070	0.140
34.499	111.355	80.005	19.993	104.224	20.101	2.232	0.093
34.999	111.405	80.004	19.997	104.223	20.101	2.237	0.058
35.499	111.484	80.004	19.995	104.223	20.103	2.131	0.094
35.999	111.557	80.005	19.995	104.223	20.100	2.299	0.140
36.499	111.630	80.005	19.994	104.222	20.105	1.973	0.149
36.999	111.676	80.005	19.993	104.222	20.102	2.185	0.133
37.499	111.712	80.001	19.995	104.222	20.106	1.928	0.101
37.999	111.805	80.004	19.993	104.222	20.106	1.909	0.105
38.500	111.870	80.005	19.994	104.224	20.103	2.119	0.143
39.000	111.965	80.006	19.995	104.228	20.106	1.907	0.159
39.500	112.013	80.005	19.994	104.228	20.103	2.126	0.152
40.000	112.069	80.004	19.995	104.227	20.103	2.135	0.123
40.499	112.152	80.007	19.994	104.228	20.104	2.044	0.121
40.999	112.204	80.003	19.995	104.225	20.105	1.954	0.137
41.499	112.301	80.006	19.992	104.222	20.102	2.146	0.142
41.999	112.346	80.006	19.995	104.224	20.103	2.114	0.146
42.499	112.433	80.004	19.992	104.224	20.104	2.072	0.137
42.999	112.497	80.003	19.996	104.229	20.103	2.137	0.142
43.499	112.571	80.003	19.997	104.232	20.103	2.112	0.144
43.999	112.652	79.998	19.998	104.232	20.107	1.871	0.146
44.499	112.737	80.007	19.989	104.229	20.104	2.054	0.160
44.999	112.810	80.005	19.994	104.235	20.103	2.103	0.162
45.499	112.900	80.004	19.994	104.236	20.102	2.202	0.161
45.999	113.010	80.003	19.994	104.239	20.102	2.175	0.182
46.499	113.050	80.002	19.996	104.243	20.102	2.141	0.175
46.999	113.176	80.005	19.995	104.245	20.104	2.029	0.158
47.499	113.238	80.004	19.994	104.243	20.106	1.893	0.177
47.999	113.354	80.004	19.994	104.244	20.103	2.110	0.183
48.499	113.418	80.004	19.994	104.245	20.102	2.195	0.179
49.000	113.525	80.002	19.994	104.249	20.103	2.117	0.175
49.500	113.621	80.003	19.995	104.254	20.102	2.193	0.187
49.999	113.720	80.004	19.994	104.258	20.103	2.078	0.199
50.499	113.811	80.005	19.994	104.257	20.100	2.324	0.193
50.999	113.871	80.004	19.994	104.257	20.102	2.166	0.170
51.499	114.031	80.004	19.994	104.258	20.099	2.396	0.185
52.000	114.108	80.005	19.995	104.258	20.101	2.213	0.229
52.500	114.176	80.005	19.995	104.258	20.100	2.331	0.191
52.999	114.269	80.005	19.994	104.260	20.100	2.324	0.153
53.499	114.360	80.006	19.994	104.260	20.099	2.347	0.172
53.999	114.468	80.006	19.993	104.260	20.097	2.518	0.191
54.499	114.592	80.005	19.995	104.259	20.099	2.387	0.216
55.000	114.703	80.005	19.994	104.260	20.097	2.489	0.234
55.500	114.788	80.005	19.994	104.260	20.098	2.419	0.215
56.000	114.882	80.005	19.995	104.260	20.096	2.590	0.188
56.499	115.022	80.005	19.995	104.261	20.097	2.477	0.207
56.999	115.122	80.004	19.996	104.263	20.097	2.491	0.237
57.500	115.233	80.007	19.994	104.262	20.097	2.488	0.225
58.000	115.373	80.007	19.994	104.262	20.097	2.507	0.231
58.500	115.467	80.006	19.994	104.262	20.097	2.487	0.242
58.999	115.556	80.006	19.994	104.261	20.097	2.518	0.208
59.499	115.683	80.006	19.994	104.258	20.097	2.511	0.200
59.999	115.788	80.007	19.994	104.257	20.097	2.489	0.224
60.499	115.930	80.007	19.992	104.257	20.096	2.549	0.239
60.999	116.055	80.006	19.994	104.257	20.094	2.727	0.257
61.499	116.199	80.007	19.995	104.257	20.094	2.675	0.268
61.999	116.271	80.005	19.994	104.256	20.096	2.567	0.242
62.499	116.391	80.006	19.995	104.256	20.097	2.531	0.204
62.999	116.468	80.007	19.995	104.256	20.095	2.603	0.195
63.500	116.628	80.006	19.994	104.255	20.098	2.412	0.217
64.000	116.737	80.005	19.993	104.255	20.096	2.541	0.254
64.500	116.891	80.006	19.994	104.255	20.095	2.637	0.266
64.999	116.997	80.006	19.993	104.253	20.096	2.534	0.261
65.499	117.094	80.006	19.994	104.252	20.096	2.554	0.231
65.999	117.214	80.006	19.993	104.250	20.098	2.464	0.210
66.500	117.338	80.006	19.993	104.250	20.095	2.640	0.231
66.999	117.508	80.004	19.995	104.251	20.100	2.329	0.269
67.499	117.583	80.006	19.994	104.253	20.102	2.184	0.269
67.999	117.729	80.005	19.992	104.255	20.101	2.243	0.233
68.499	117.853	80.005	19.993	104.256	20.099	2.373	0.246
69.000	117.989	80.005	19.994	104.254	20.095	2.608	0.265
69.500	118.112	80.004	19.994	104.254	20.096	2.536	0.260
70.000	118.222	80.004	19.994	104.255	20.098	2.422	0.246
70.499	118.368	80.005	19.993	104.256	20.099	2.400	0.244
70.999	118.491	80.005	19.995	104.258	20.100	2.328	0.262
71.500	118.639	80.004	19.994	104.261	20.095	2.646	0.270
71.999	118.771	80.006	19.993	104.263	20.098	2.461	0.275
72.499	118.888	80.004	19.993	104.263	20.099	2.350	0.265
73.000	118.990	80.004	19.994	104.263	20.098	2.458	0.234
73.500	119.132	80.005	19.994	104.263	20.098	2.411	0.232
73.999	119.302	80.004	19.994	104.261	20.094	2.676	0.279
74.499	119.406	80.005	19.994	104.259	20.097	2.476	0.293
75.000	119.530	80.004	19.995	104.258	20.098	2.440	0.250
75.499	119.673	80.004	19.995	104.258	20.097	2.519	0.248
75.999	119.822	80.004	19.994	104.261	20.096	2.555	0.280
76.500	119.955	80.005	19.994	104.262	20.097	2.483	0.287
77.000	120.104	80.005	19.994	104.262	20.095	2.620	0.282
77.500	120.232	80.004	19.994	104.262	20.098	2.463	0.279
78.000	120.367	80.003	19.994	104.262	20.098	2.463	0.270
78.500	120.485	80.003	19.994	104.261	20.096	2.551	0.258
78.999	120.671	80.004	19.995	104.262	20.098	2.406	0.279
79.499	120.823	80.005	19.994	104.263	20.097	2.499	0.321
79.999	120.980	80.004	19.995	104.267	20.097	2.517	0.323
80.499	121.128	80.002	19.994	104.274	20.093	2.771	0.307
80.999	121.282	80.004	19.995	104.278	20.094	2.667	0.303
81.499	121.455	80.004	19.994	104.280	20.092	2.810	0.315
81.999	121.586	80.003	19.996	104.280	20.096	2.595	0.315
82.499	121.718	80.003	19.995	104.284	20.097	2.469	0.284
82.999	121.857	80.002	19.998	104.284	20.094	2.721	0.267
83.499	122.021	80.004	19.998	104.286	20.092	2.814	0.287
83.999	122.166	80.005	19.996	104.291	20.092	2.803	0.306
84.499	122.319	80.004	19.996	104.299	20.092	2.816	0.303
84.999	122.489	80.004	19.995	104.299	20.093	2.744	0.311
85.499	122.634	80.004	19.996	104.299	20.093	2.785	0.320
86.000	122.763	80.004	19.994	104.296	20.090	2.978	0.295
86.499	122.935	80.004	19.996	104.290	20.093	2.749	0.287
86.999	123.113	80.003	19.996	104.289	20.093	2.765	0.325
87.499	123.276	80.004	19.994	104.289	20.093	2.755	0.345
87.999	123.402	80.005	19.996	104.289	20.095	2.647	0.315
88.499	123.520	80.003	19.996	104.293	20.093	2.765	0.267
89.000	123.725	80.003	19.995	104.298	20.091	2.870	0.284
89.499	123.919	80.004	19.994	104.299	20.094	2.699	0.360
89.999	124.043	80.004	19.994	104.299	20.093	2.742	0.358
90.499	124.215	80.005	19.994	104.300	20.093	2.740	0.307
90.999	124.390	80.003	19.995	104.300	20.096	2.535	0.322
91.499	124.554	80.004	19.994	104.300	20.093	2.751	0.343
91.999	124.730	80.003	19.994	104.300	20.093	2.775	0.340
92.499	124.904	80.004	19.994	104.300	20.092	2.843	0.346
92.999	125.037	80.003	19.995	104.301	20.092	2.855	0.328
93.499	125.225	80.003	19.994	104.303	20.095	2.632	0.313
94.000	125.367	80.004	19.995	104.304	20.092	2.854	0.325
94.500	125.556	80.005	19.994	104.303	20.093	2.758	0.331
95.000	125.724	80.003	19.994	104.303	20.093	2.794	0.344
95.500	125.892	80.004	19.993	104.302	20.093	2.751	0.346
96.000	126.079	80.005	19.994	104.299	20.091	2.902	0.346
96.500	126.251	80.003	19.994	104.299	20.090	2.990	0.358
97.000	126.419	80.004	19.994	104.300	20.092	2.821	0.349
97.500	126.618	80.005	19.992	104.300	20.093	2.782	0.353
97.999	126.730	80.004	19.995	104.301	20.091	2.886	0.339
98.499	126.889	80.002	19.993	104.301	20.091	2.926	0.291
98.999	127.114	80.004	19.993	104.301	20.094	2.696	0.327
99.499	127.278	80.004	19.995	104.301	20.093	2.766	0.387
99.999	127.464	80.003	19.993	104.300	20.089	3.021	0.370
100.499	127.624	80.003	19.996	104.300	20.091	2.902	0.348
100.999	127.783	80.003	19.993	104.301	20.091	2.917	0.332
101.499	128.021	80.004	19.994	104.301	20.093	2.788	0.358
101.999	128.171	80.003	19.995	104.302	20.091	2.926	0.392
102.500	128.367	80.003	19.994	104.302	20.091	2.921	0.367
103.000	128.528	80.003	19.995	104.302	20.092	2.818	0.352
103.500	128.710	80.004	19.993	104.302	20.088	3.085	0.350
104.000	128.945	80.002	19.995	104.301	20.090	2.986	0.380
104.500	129.111	80.003	19.996	104.302	20.094	2.700	0.409
105.000	129.265	80.001	19.996	104.303	20.090	2.935	0.360
105.499	129.455	80.004	19.993	104.304	20.091	2.906	0.332
105.999	129.663	80.003	19.994	104.304	20.088	3.113	0.371
106.499	129.844	80.004	19.995	104.306	20.091	2.917	0.394
106.999	130.035	80.004	19.995	104.306	20.091	2.887	0.381
107.499	130.216	80.003	19.996	104.306	20.092	2.827	0.372
107.999	130.399	80.003	19.995	104.307	20.089	3.039	0.368
108.499	130.628	80.003	19.995	104.311	20.091	2.912	0.388
108.999	130.828	80.003	19.995	104.313	20.092	2.852	0.420
109.499	130.971	80.003	19.995	104.312	20.092	2.854	0.386
110.000	131.212	80.004	19.994	104.311	20.087	3.154	0.364
110.500	131.334	80.002	19.993	104.310	20.090	2.953	0.373
110.999	131.564	80.003	19.996	104.309	20.087	3.180	0.357
111.499	131.763	80.005	19.998	104.311	20.088	3.077	0.391
112.000	131.972	80.003	19.996	104.317	20.089	3.054	0.418
112.499	132.179	79.999	19.999	104.325	20.088	3.070	0.412
112.999	132.360	80.003	19.995	104.327	20.087	3.146	0.402
113.500	132.562	80.003	19.996	104.332	20.088	3.108	0.386
114.000	132.763	80.005	19.995	104.331	20.090	2.953	0.393
114.499	132.924	80.005	19.996	104.329	20.091	2.876	0.382
114.999	133.140	80.006	19.995	104.324	20.087	3.164	0.370
115.500	133.339	80.004	19.994	104.325	20.089	3.013	0.396
115.999	133.503	80.004	19.995	104.319	20.089	2.998	0.389
116.499	133.738	80.006	19.995	104.317	20.090	2.961	0.382
116.999	133.923	80.004	19.995	104.319	20.087	3.157	0.409
117.500	134.134	80.005	19.994	104.323	20.087	3.185	0.407
118.000	134.363	80.005	19.994	104.323	20.090	2.930	0.418
118.500	134.540	80.004	19.995	104.325	20.088	3.070	0.423
119.000	134.766	80.006	19.995	104.324	20.090	2.989	0.404
119.499	134.972	80.004	19.996	104.320	20.088	3.068	0.417
119.999	135.155	80.005	19.995	104.316	20.089	3.011	0.410
120.499	135.388	80.005	19.994	104.315	20.089	3.011	0.402
120.999	135.579	80.006	19.995	104.317	20.089	2.998	0.420
121.499	135.821	80.005	19.995	104.320	20.090	2.977	0.429
121.999	136.010	80.004	19.996	104.325	20.092	2.847	0.432
122.499	136.226	80.006	19.994	104.329	20.090	2.984	0.418
122.999	136.404	80.006	19.995	104.333	20.088	3.070	0.399
123.499	136.638	80.004	19.994	104.332	20.088	3.122	0.403
123.999	136.844	80.004	19.994	104.330	20.088	3.113	0.426
124.499	137.029	80.005	19.994	104.329	20.087	3.146	0.416
124.999	137.262	80.004	19.994	104.330	20.087	3.155	0.404
125.499	137.487	80.004	19.994	104.330	20.089	3.016	0.438
125.999	137.668	80.006	19.994	104.331	20.087	3.169	0.433
126.499	137.896	80.005	19.994	104.334	20.090	2.928	0.407
126.999	138.110	80.004	19.995	104.335	20.090	2.930	0.425
127.499	138.322	80.004	19.994	104.334	20.090	2.982	0.434
127.999	138.568	80.005	19.994	104.333	20.092	2.856	0.442
128.500	138.757	80.005	19.994	104.332	20.089	3.020	0.447
129.000	139.003	80.005	19.994	104.330	20.088	3.120	0.435
129.500	139.196	80.005	19.994	104.330	20.089	3.007	0.436
130.000	139.422	80.005	19.994	104.331	20.087	3.178	0.429
130.500	139.631	80.005	19.994	104.332	20.088	3.090	0.428
131.000	139.848	80.005	19.994	104.331	20.091	2.880	0.431
131.500	140.095	80.006	19.994	104.333	20.086	3.230	0.445
132.000	140.328	80.003	19.994	104.333	20.088	3.106	0.472
132.500	140.536	80.004	19.993	104.333	20.086	3.218	0.460
133.000	140.758	80.004	19.995	104.331	20.084	3.344	0.435
133.500	140.994	80.005	19.994	104.333	20.088	3.115	0.445
134.000	141.213	80.005	19.995	104.332	20.089	3.052	0.457
134.500	141.471	80.005	19.992	104.332	20.087	3.140	0.466
135.000	141.663	80.005	19.994	104.331	20.088	3.121	0.464
135.500	141.914	80.006	19.995	104.332	20.089	3.056	0.446
136.000	142.130	80.006	19.995	104.331	20.089	3.022	0.454
136.500	142.354	80.004	19.994	104.331	20.088	3.068	0.454
136.999	142.571	80.006	19.994	104.330	20.087	3.140	0.441
137.500	142.837	80.006	19.993	104.326	20.087	3.133	0.462
138.000	143.040	80.006	19.992	104.323	20.085	3.286	0.476
138.499	143.263	80.005	19.993	104.320	20.088	3.075	0.448
139.000	143.517	80.006	19.993	104.317	20.085	3.263	0.452
139.500	143.755	80.007	19.994	104.319	20.089	3.020	0.484
139.999	143.956	80.007	19.994	104.323	20.085	3.271	0.465
140.499	144.193	80.006	19.994	104.328	20.088	3.102	0.439
140.999	144.437	80.007	19.993	104.331	20.088	3.102	0.459
141.499	144.678	80.005	19.993	104.335	20.086	3.203	0.483
142.000	144.915	80.005	19.993	104.330	20.087	3.129	0.482
142.500	145.137	80.005	19.994	104.328	20.085	3.268	0.469
143.000	145.364	80.006	19.995	104.328	20.088	3.084	0.454
143.500	145.625	80.004	19.993	104.329	20.088	3.122	0.468
144.000	145.824	80.004	19.997	104.329	20.089	3.048	0.474
144.500	146.117	80.005	19.995	104.333	20.088	3.084	0.476
145.000	146.310	80.005	19.995	104.334	20.086	3.230	0.489
145.500	146.548	80.006	19.995	104.334	20.088	3.111	0.459
146.000	146.769	80.005	19.994	104.333	20.088	3.084	0.445
146.500	147.019	80.005	19.996	104.332	20.088	3.061	0.465
146.999	147.241	80.006	19.994	104.330	20.087	3.135	0.472
147.500	147.480	80.004	19.994	104.330	20.089	3.007	0.467
148.000	147.681	80.005	19.994	104.330	20.088	3.108	0.451
148.499	147.950	80.005	19.994	104.328	20.089	3.011	0.455
149.000	148.183	80.004	19.993	104.327	20.089	2.996	0.486
149.500	148.468	80.003	19.994	104.325	20.092	2.840	0.510
150.000	148.657	80.003	19.994	104.326	20.088	3.079	0.496
150.500	148.913	80.004	19.994	104.324	20.087	3.178	0.459
151.000	149.150	80.003	19.994	104.320	20.087	3.158	0.469
151.500	149.386	80.003	19.994	104.323	20.085	3.280	0.483
152.000	149.621	80.004	19.994	104.325	20.085	3.259	0.472
152.499	149.889	80.004	19.993	104.324	20.088	3.117	0.487
152.999	150.112	80.004	19.994	104.323	20.089	3.054	0.497
153.499	150.342	80.004	19.994	104.325	20.089	3.038	0.472
154.000	150.571	80.004	19.994	104.323	20.089	3.014	0.455
154.500	150.796	80.004	19.994	104.320	20.089	3.020	0.456
155.000	151.040	80.004	19.993	104.317	20.088	3.086	0.462
155.500	151.267	80.004	19.994	104.316	20.089	3.009	0.471
156.000	151.539	80.004	19.993	104.318	20.087	3.144	0.485
156.500	151.766	80.003	19.993	104.319	20.088	3.090	0.499
157.000	152.005	80.002	19.993	104.323	20.090	2.978	0.483
157.500	152.261	80.004	19.993	104.326	20.087	3.182	0.480
158.000	152.512	80.003	19.994	104.327	20.087	3.180	0.501
158.500	152.768	80.005	19.994	104.323	20.088	3.077	0.507
159.000	153.007	80.005	19.994	104.324	20.084	3.331	0.501
159.500	153.260	80.003	19.994	104.325	20.084	3.366	0.494
159.999	153.460	80.005	19.994	104.326	20.086	3.237	0.473
160.499	153.765	80.005	19.993	104.326	20.086	3.215	0.479
161.000	153.946	80.006	19.992	104.326	20.085	3.285	0.495
161.500	154.204	80.004	19.993	104.322	20.086	3.201	0.462
162.000	154.450	80.004	19.992	104.320	20.087	3.140	0.472
162.500	154.689	80.004	19.994	104.321	20.090	2.971	0.495
163.000	154.921	80.004	19.993	104.321	20.088	3.111	0.478
163.500	155.188	80.005	19.994	104.325	20.088	3.111	0.485
164.000	155.433	80.005	19.994	104.329	20.087	3.174	0.505
164.500	155.637	80.004	19.994	104.330	20.086	3.222	0.481
165.000	155.898	80.004	19.995	104.330	20.088	3.084	0.457
165.499	156.128	80.005	19.994	104.331	20.088	3.080	0.479
165.999	156.385	80.005	19.993	104.326	20.088	3.080	0.489
166.500	156.645	80.005	19.993	104.324	20.088	3.097	0.501
167.000	156.905	80.003	19.994	104.323	20.087	3.170	0.518
167.500	157.149	80.004	19.993	104.324	20.090	2.982	0.512
168.000	157.379	80.004	19.993	104.325	20.089	2.998	0.489
168.500	157.609	80.004	19.994	104.326	20.086	3.213	0.467
169.000	157.861	80.005	19.994	104.326	20.089	3.042	0.471
169.500	158.133	80.006	19.994	104.324	20.089	3.035	0.503
170.000	158.372	80.004	19.993	104.317	20.088	3.068	0.518
170.500	158.639	80.003	19.993	104.312	20.085	3.275	0.509
170.999	158.866	80.003	19.992	104.312	20.087	3.142	0.500
171.500	159.090	80.004	19.993	104.308	20.085	3.264	0.472
172.000	159.350	80.002	19.993	104.306	20.089	3.025	0.468
172.500	159.592	80.004	19.993	104.306	20.088	3.118	0.493
