Sample ID:	C:\MCC\MCC Cal\Test\PUF_Mattress_Pad_MCC_30K_min_211219_R1.txt
Sample Weight (mg):	4.45
Heating Rate (C/s):	0.5
Combustor Temp (C):	900
N2 Flow Rate (cc/min):	80
O2 Flow Rate (cc/min):	20
Calibration File:	C:\MCC\MCC Cal\Coeff1 JN10440_30_210304.txt.txt
T Correction Coefficients:	0	1.024463	0
Time Shift (s):	14
*
Time (s)	Temperature (C)	N2 flow rate (cc/min)	O2 flow rate (cc/min)	Flow Rate (cc/min)	Oxygen (%)	HRR (W/g)	Heating rate (C/s)
0.000	110.619	80.003	19.992	104.030	19.980	-0.066	-0.012
0.501	110.678	80.001	19.994	104.025	19.980	-0.112	0.015
1.001	110.607	80.001	19.993	104.025	19.983	-0.336	0.009
1.501	110.636	80.000	19.996	104.025	19.981	-0.140	-0.027
2.000	110.639	80.002	19.995	104.025	19.983	-0.350	-0.005
2.500	110.647	80.001	19.995	104.026	19.979	-0.014	0.022
3.000	110.578	80.002	19.995	104.032	19.977	0.148	-0.025
3.500	110.622	80.001	19.995	104.032	19.976	0.218	-0.043
4.000	110.648	80.000	19.995	104.012	19.978	0.024	0.022
4.500	110.597	80.001	19.993	103.991	19.978	0.046	0.023
5.000	110.602	80.000	19.994	103.978	19.978	0.052	-0.035
5.500	110.585	80.002	19.995	103.970	19.979	-0.002	-0.029
6.000	110.621	80.002	19.995	103.965	19.980	-0.096	0.003
6.500	110.641	80.001	19.992	103.985	19.975	0.260	0.038
7.001	110.611	80.001	19.994	104.006	19.977	0.114	0.023
7.501	110.644	80.000	19.994	104.018	19.980	-0.094	-0.004
8.001	110.656	80.001	19.994	104.027	19.979	-0.042	0.024
8.500	110.622	80.001	19.994	104.041	19.978	0.038	0.011
9.000	110.657	80.002	19.994	104.075	19.978	0.030	-0.010
9.501	110.611	80.000	19.993	104.083	19.976	0.218	-0.005
10.001	110.647	80.001	19.994	104.082	19.978	0.076	-0.011
10.501	110.620	80.001	19.993	104.077	19.977	0.108	-0.001
11.001	110.636	80.000	19.992	104.066	19.981	-0.174	-0.001
11.501	110.624	80.000	19.994	104.027	19.980	-0.072	-0.003
12.001	110.606	80.001	19.994	104.015	19.980	-0.082	-0.013
12.501	110.623	79.999	19.994	104.016	19.979	-0.002	-0.016
13.001	110.600	80.000	19.993	104.017	19.979	-0.032	-0.003
13.500	110.617	80.001	19.995	104.018	19.983	-0.296	-0.006
14.000	110.613	80.003	19.995	104.025	19.982	-0.276	0.003
14.501	110.609	80.000	19.995	104.029	19.979	-0.032	0.002
15.001	110.659	80.000	19.993	104.030	19.979	-0.040	0.019
15.500	110.597	80.000	19.993	104.033	19.975	0.258	0.016
16.000	110.651	80.001	19.995	104.037	19.976	0.170	-0.010
16.501	110.645	80.001	19.994	104.044	19.977	0.134	0.020
17.001	110.619	79.999	19.995	104.051	19.976	0.170	0.009
17.500	110.631	80.001	19.993	104.053	19.971	0.593	-0.023
18.000	110.627	80.001	19.994	104.037	19.973	0.382	-0.004
18.500	110.638	80.003	19.994	104.039	19.969	0.707	0.007
19.000	110.631	80.002	19.993	104.043	19.973	0.423	0.006
19.500	110.646	80.003	19.993	104.049	19.970	0.607	0.006
20.000	110.661	80.002	19.996	104.067	19.971	0.585	0.019
20.500	110.620	80.002	19.997	104.107	19.972	0.485	0.002
21.000	110.658	80.002	19.996	104.155	19.970	0.655	-0.014
21.501	110.662	80.000	19.995	104.171	19.966	0.931	0.020
22.001	110.669	80.003	19.995	104.179	19.960	1.331	0.027
22.501	110.713	80.001	19.995	104.179	19.966	0.915	0.031
23.001	110.731	80.002	19.994	104.176	19.964	1.047	0.057
23.501	110.759	80.002	19.993	104.147	19.961	1.293	0.054
24.000	110.740	80.002	19.993	104.145	19.961	1.294	0.027
24.500	110.773	80.001	19.993	104.149	19.959	1.426	0.011
25.000	110.777	80.003	19.994	104.161	19.955	1.752	0.025
25.500	110.822	80.002	19.994	104.170	19.956	1.646	0.044
26.000	110.847	80.002	19.995	104.177	19.953	1.850	0.060
26.500	110.888	80.002	19.994	104.184	19.953	1.884	0.068
27.000	110.914	80.002	19.993	104.187	19.955	1.752	0.066
27.500	110.970	80.003	19.993	104.189	19.954	1.826	0.075
28.000	110.997	80.004	19.993	104.196	19.952	1.943	0.083
28.500	111.025	80.003	19.992	104.203	19.951	1.995	0.069
29.000	111.059	80.003	19.994	104.210	19.949	2.155	0.058
29.501	111.148	80.004	19.993	104.215	19.952	1.927	0.092
30.000	111.148	80.005	19.994	104.215	19.949	2.143	0.106
30.500	111.184	80.004	19.993	104.207	19.949	2.169	0.062
31.000	111.192	80.004	19.994	104.201	19.948	2.273	0.040
31.500	111.309	80.005	19.993	104.195	19.948	2.235	0.085
32.000	111.316	80.004	19.994	104.189	19.946	2.413	0.125
32.501	111.373	80.004	19.993	104.188	19.949	2.183	0.094
33.001	111.429	80.004	19.994	104.190	19.949	2.153	0.089
33.501	111.484	80.002	19.993	104.197	19.947	2.277	0.112
34.001	111.538	80.004	19.994	104.198	19.948	2.235	0.110
34.501	111.604	80.003	19.993	104.199	19.945	2.422	0.114
35.001	111.664	80.003	19.994	104.205	19.946	2.408	0.123
35.501	111.739	80.003	19.994	104.207	19.947	2.304	0.131
36.001	111.791	80.004	19.993	104.200	19.945	2.448	0.131
36.501	111.828	80.004	19.995	104.199	19.944	2.566	0.108
37.001	111.871	80.002	19.994	104.201	19.949	2.167	0.085
37.501	111.966	80.004	19.994	104.200	19.945	2.434	0.109
38.001	112.022	80.003	19.993	104.203	19.945	2.434	0.144
38.501	112.058	80.002	19.994	104.210	19.944	2.564	0.121
39.001	112.149	80.002	19.993	104.220	19.945	2.435	0.109
39.501	112.242	80.003	19.994	104.224	19.943	2.575	0.156
40.001	112.289	80.002	19.993	104.228	19.947	2.345	0.162
40.501	112.366	80.002	19.994	104.229	19.942	2.662	0.132
41.001	112.441	80.002	19.995	104.229	19.939	2.870	0.138
41.501	112.538	80.003	19.996	104.228	19.941	2.738	0.162
42.001	112.625	80.003	19.993	104.230	19.939	2.898	0.178
42.501	112.671	80.003	19.994	104.230	19.938	2.934	0.158
43.000	112.763	80.003	19.995	104.230	19.937	3.068	0.136
43.500	112.876	80.002	19.995	104.230	19.939	2.896	0.172
44.001	112.931	80.002	19.995	104.231	19.937	3.054	0.186
44.501	113.049	80.002	19.995	104.236	19.936	3.106	0.171
45.001	113.141	80.003	19.996	104.241	19.936	3.132	0.192
45.501	113.260	80.002	19.995	104.245	19.938	3.004	0.211
46.001	113.364	80.003	19.996	104.250	19.944	2.554	0.217
46.501	113.428	80.003	19.994	104.251	19.936	3.087	0.195
47.000	113.568	80.003	19.995	104.251	19.939	2.929	0.186
47.501	113.652	80.001	19.995	104.250	19.935	3.161	0.214
48.001	113.775	80.002	19.995	104.246	19.936	3.089	0.216
48.501	113.851	80.003	19.995	104.242	19.936	3.087	0.203
49.001	113.924	80.004	19.994	104.238	19.936	3.139	0.174
49.501	114.066	80.003	19.994	104.230	19.935	3.222	0.182
50.001	114.115	80.003	19.995	104.225	19.935	3.206	0.203
50.501	114.286	80.003	19.993	104.224	19.936	3.135	0.206
51.001	114.380	80.004	19.994	104.224	19.941	2.717	0.242
51.501	114.484	80.003	19.993	104.224	19.934	3.276	0.231
52.001	114.616	80.004	19.995	104.224	19.943	2.637	0.217
52.501	114.697	80.004	19.993	104.225	19.934	3.294	0.225
53.001	114.803	80.003	19.994	104.226	19.937	3.031	0.200
53.501	114.913	80.003	19.994	104.231	19.941	2.721	0.201
54.001	115.092	80.004	19.994	104.232	19.936	3.120	0.252
54.501	115.148	80.005	19.993	104.234	19.938	2.955	0.262
55.000	115.214	80.004	19.995	104.234	19.934	3.290	0.179
55.500	115.383	80.004	19.993	104.233	19.934	3.239	0.178
56.001	115.486	80.003	19.993	104.231	19.932	3.371	0.254
56.501	115.641	80.004	19.993	104.229	19.934	3.270	0.265
57.001	115.723	80.004	19.995	104.232	19.937	3.012	0.247
57.501	115.874	80.004	19.993	104.240	19.936	3.129	0.235
58.001	116.002	80.001	19.994	104.244	19.933	3.315	0.256
58.501	116.149	80.003	19.993	104.249	19.936	3.104	0.277
59.000	116.251	80.002	19.994	104.256	19.937	3.077	0.262
59.501	116.370	80.003	19.994	104.260	19.935	3.199	0.235
60.001	116.478	80.004	19.994	104.261	19.934	3.298	0.224
60.501	116.639	80.002	19.992	104.264	19.935	3.193	0.248
61.001	116.791	80.001	19.994	104.264	19.935	3.156	0.291
61.501	116.899	80.002	19.993	104.265	19.932	3.418	0.286
62.001	117.014	80.001	19.994	104.265	19.934	3.276	0.242
62.501	117.152	80.002	19.994	104.264	19.934	3.242	0.238
63.000	117.313	80.002	19.995	104.265	19.935	3.204	0.276
63.501	117.463	80.001	19.994	104.265	19.933	3.354	0.305
64.001	117.612	80.001	19.994	104.266	19.939	2.928	0.305
64.501	117.726	80.001	19.994	104.267	19.929	3.653	0.281
65.001	117.920	80.001	19.994	104.268	19.933	3.310	0.285
65.501	118.035	79.999	19.994	104.270	19.932	3.411	0.308
66.000	118.172	80.000	19.994	104.278	19.933	3.333	0.281
66.500	118.327	80.001	19.994	104.251	19.935	3.200	0.272
67.001	118.401	80.000	19.996	104.228	19.931	3.455	0.261
67.501	118.595	80.000	19.996	104.215	19.934	3.299	0.249
68.001	118.740	80.000	19.994	104.205	19.932	3.401	0.304
68.501	118.887	80.000	19.994	104.196	19.933	3.341	0.315
69.001	119.034	79.999	19.994	104.244	19.929	3.605	0.293
69.500	119.226	79.998	19.994	104.294	19.930	3.519	0.316
70.000	119.328	80.000	19.995	104.315	19.929	3.627	0.316
70.500	119.466	79.999	19.995	104.325	19.929	3.649	0.267
71.000	119.691	80.000	19.995	104.328	19.930	3.569	0.302
71.501	119.817	80.001	19.995	104.307	19.931	3.517	0.357
72.001	119.975	79.999	19.994	104.284	19.931	3.483	0.318
72.501	120.112	80.000	19.994	104.280	19.929	3.664	0.289
73.001	120.261	79.999	19.995	104.283	19.927	3.784	0.290
73.500	120.449	80.000	19.993	104.284	19.925	3.920	0.311
74.000	120.623	80.000	19.994	104.284	19.924	4.000	0.350
74.501	120.791	80.001	19.994	104.282	19.925	3.930	0.352
75.001	120.940	79.998	19.994	104.282	19.928	3.672	0.329
75.501	121.094	80.000	19.995	104.278	19.924	3.960	0.310
76.001	121.264	80.000	19.994	104.279	19.928	3.694	0.314
76.501	121.455	79.999	19.994	104.286	19.926	3.872	0.343
77.001	121.603	80.001	19.995	104.291	19.926	3.856	0.350
77.501	121.796	80.000	19.993	104.294	19.930	3.562	0.340
78.000	121.976	80.002	19.994	104.301	19.925	3.920	0.356
78.500	122.125	80.000	19.993	104.305	19.923	4.033	0.351
79.000	122.314	80.000	19.994	104.301	19.927	3.756	0.334
79.500	122.519	80.000	19.994	104.294	19.926	3.860	0.366
80.000	122.662	80.001	19.995	104.289	19.926	3.866	0.371
80.501	122.907	80.002	19.994	104.288	19.927	3.780	0.368
81.001	123.044	80.001	19.994	104.288	19.926	3.836	0.385
81.500	123.233	80.001	19.994	104.290	19.927	3.790	0.354
82.000	123.406	80.003	19.994	104.297	19.925	3.932	0.344
82.500	123.582	80.002	19.994	104.301	19.927	3.744	0.356
83.000	123.783	80.002	19.993	104.302	19.924	4.028	0.363
83.501	123.941	80.001	19.993	104.302	19.928	3.678	0.368
84.001	124.132	80.002	19.993	104.306	19.923	4.085	0.353
84.501	124.344	80.001	19.994	104.304	19.924	3.990	0.376
85.001	124.523	80.001	19.994	104.303	19.926	3.870	0.397
85.500	124.707	80.001	19.993	104.303	19.924	4.017	0.377
86.000	124.887	80.002	19.993	104.303	19.926	3.880	0.363
86.500	125.070	80.002	19.993	104.301	19.924	3.995	0.364
87.000	125.241	80.001	19.994	104.303	19.927	3.782	0.358
87.500	125.441	80.002	19.994	104.304	19.926	3.816	0.362
88.000	125.609	80.001	19.994	104.303	19.920	4.317	0.370
88.500	125.824	80.002	19.994	104.303	19.924	4.021	0.376
89.000	125.992	80.002	19.994	104.303	19.924	3.981	0.383
89.500	126.227	80.000	19.993	104.304	19.922	4.129	0.392
90.000	126.391	80.002	19.994	104.304	19.923	4.085	0.401
90.500	126.611	80.002	19.994	104.305	19.924	4.023	0.392
91.001	126.808	80.003	19.994	104.304	19.922	4.115	0.400
91.501	126.996	80.001	19.994	104.304	19.923	4.103	0.401
92.000	127.197	80.002	19.994	104.303	19.924	3.963	0.387
92.500	127.402	80.001	19.994	104.303	19.921	4.190	0.398
93.000	127.576	80.001	19.994	104.302	19.926	3.843	0.393
93.501	127.783	80.001	19.994	104.302	19.923	4.038	0.380
94.001	127.930	80.002	19.994	104.301	19.922	4.149	0.367
94.500	128.214	80.000	19.995	104.303	19.925	3.909	0.393
95.001	128.388	80.001	19.994	104.302	19.924	3.977	0.444
95.501	128.621	80.001	19.994	104.303	19.923	4.081	0.432
96.000	128.838	80.000	19.994	104.304	19.923	4.103	0.428
96.501	129.025	80.001	19.993	104.307	19.918	4.412	0.427
97.001	129.197	80.000	19.994	104.306	19.923	4.043	0.382
97.501	129.452	80.001	19.994	104.306	19.923	4.075	0.393
98.001	129.635	80.000	19.994	104.307	19.922	4.125	0.432
98.501	129.870	80.001	19.994	104.307	19.922	4.167	0.428
99.001	130.060	80.000	19.995	104.291	19.923	4.049	0.422
99.501	130.274	80.001	19.993	104.269	19.922	4.115	0.415
100.000	130.511	80.002	19.994	104.258	19.926	3.880	0.427
100.501	130.677	80.003	19.993	104.255	19.924	4.023	0.427
101.001	130.916	80.001	19.993	104.255	19.922	4.121	0.404
101.501	131.128	80.000	19.995	104.272	19.922	4.163	0.428
102.001	131.312	80.001	19.992	104.321	19.922	4.133	0.423
102.501	131.553	80.000	19.994	104.364	19.925	3.931	0.410
103.001	131.740	80.001	19.994	104.374	19.927	3.770	0.427
103.501	131.982	80.001	19.994	104.378	19.926	3.822	0.429
104.001	132.173	80.001	19.994	104.375	19.926	3.824	0.431
104.501	132.363	80.002	19.995	104.349	19.925	3.932	0.407
105.001	132.608	80.002	19.996	104.317	19.927	3.772	0.408
105.501	132.827	80.002	19.994	104.312	19.925	3.895	0.450
106.001	133.053	80.002	19.993	104.316	19.924	3.997	0.455
106.500	133.315	80.002	19.994	104.321	19.928	3.720	0.467
107.000	133.475	80.003	19.994	104.322	19.927	3.780	0.455
107.501	133.749	80.002	19.994	104.323	19.921	4.211	0.428
108.001	133.968	80.004	19.994	104.320	19.927	3.760	0.464
108.501	134.213	80.004	19.994	104.312	19.926	3.856	0.479
109.000	134.403	80.004	19.994	104.306	19.930	3.576	0.449
109.500	134.668	80.002	19.995	104.304	19.924	4.021	0.445
110.001	134.852	80.004	19.994	104.303	19.925	3.912	0.452
110.501	135.055	80.003	19.994	104.303	19.925	3.932	0.418
111.001	135.348	80.004	19.993	104.304	19.927	3.744	0.441
111.500	135.562	80.004	19.994	104.305	19.920	4.267	0.502
112.000	135.762	80.004	19.994	104.305	19.925	3.884	0.461
112.500	136.015	80.003	19.994	104.307	19.918	4.466	0.433
113.001	136.270	80.004	19.994	104.309	19.926	3.882	0.480
113.501	136.510	80.004	19.993	104.309	19.920	4.275	0.502
114.001	136.690	80.003	19.994	104.310	19.925	3.888	0.457
114.501	136.911	80.004	19.994	104.310	19.921	4.227	0.411
115.001	137.179	80.005	19.993	104.308	19.925	3.899	0.445
115.501	137.400	80.002	19.993	104.308	19.920	4.251	0.489
116.000	137.633	80.004	19.993	104.308	19.920	4.300	0.472
116.500	137.860	80.004	19.993	104.311	19.924	4.027	0.457
117.000	138.153	80.005	19.993	104.314	19.919	4.380	0.490
117.501	138.348	80.002	19.994	104.315	19.922	4.163	0.504
118.001	138.553	80.004	19.992	104.312	19.923	4.035	0.444
118.500	138.842	80.004	19.993	104.311	19.926	3.856	0.447
119.001	139.013	80.003	19.994	104.307	19.922	4.145	0.477
119.501	139.294	80.003	19.994	104.304	19.926	3.866	0.456
120.000	139.536	80.003	19.993	104.304	19.918	4.461	0.487
120.501	139.749	80.004	19.994	104.305	19.922	4.137	0.489
121.001	140.042	80.003	19.993	104.307	19.926	3.850	0.481
121.501	140.279	80.003	19.994	104.308	19.923	4.059	0.518
122.000	140.494	80.004	19.993	104.308	19.926	3.812	0.491
122.501	140.758	80.004	19.992	104.309	19.925	3.948	0.465
123.001	141.017	80.002	19.993	104.309	19.923	4.093	0.501
123.501	141.218	80.003	19.993	104.307	19.926	3.874	0.492
124.001	141.474	80.004	19.993	104.307	19.923	4.068	0.459
124.501	141.722	80.002	19.993	104.307	19.922	4.160	0.481
125.001	141.934	80.002	19.993	104.308	19.924	4.028	0.482
125.501	142.185	80.002	19.993	104.309	19.918	4.467	0.461
126.001	142.412	80.004	19.993	104.312	19.923	4.050	0.470
126.501	142.673	80.002	19.994	104.314	19.924	4.010	0.483
127.001	142.926	80.003	19.993	104.315	19.920	4.313	0.501
127.501	143.173	80.002	19.994	104.313	19.925	3.948	0.507
128.001	143.419	80.002	19.994	104.312	19.917	4.481	0.497
128.501	143.667	80.003	19.992	104.308	19.921	4.193	0.494
129.001	143.909	80.003	19.994	104.306	19.922	4.159	0.492
129.501	144.133	80.003	19.994	104.305	19.919	4.323	0.478
130.001	144.389	80.003	19.992	104.303	19.921	4.191	0.473
130.501	144.657	80.003	19.994	104.303	19.926	3.876	0.502
131.001	144.884	80.002	19.994	104.303	19.927	3.760	0.510
131.501	145.155	80.004	19.994	104.302	19.923	4.080	0.496
132.001	145.397	80.003	19.994	104.303	19.925	3.904	0.505
132.500	145.655	80.003	19.995	104.304	19.926	3.842	0.506
133.000	145.942	80.003	19.995	104.304	19.920	4.260	0.522
133.501	146.160	80.004	19.993	104.302	19.921	4.221	0.525
134.001	146.406	80.004	19.994	104.301	19.923	4.097	0.485
134.501	146.650	80.004	19.995	104.298	19.921	4.203	0.477
135.001	146.887	80.004	19.994	104.298	19.920	4.259	0.486
135.501	147.153	80.002	19.994	104.296	19.926	3.846	0.492
136.001	147.350	80.002	19.994	104.296	19.926	3.865	0.483
136.501	147.627	80.003	19.994	104.296	19.920	4.316	0.469
137.000	147.831	80.004	19.995	104.297	19.922	4.132	0.478
137.501	148.121	80.003	19.994	104.298	19.921	4.234	0.487
138.001	148.385	80.004	19.994	104.299	19.919	4.335	0.524
138.501	148.624	80.004	19.994	104.301	19.923	4.088	0.528
139.001	148.893	80.004	19.994	104.302	19.915	4.629	0.505
139.501	149.142	80.004	19.994	104.303	19.921	4.196	0.513
140.001	149.419	80.002	19.993	104.301	19.923	4.037	0.522
140.501	149.650	80.003	19.993	104.297	19.923	4.100	0.517
141.001	149.912	80.002	19.994	104.296	19.927	3.775	0.501
141.501	150.142	80.003	19.994	104.294	19.925	3.894	0.493
142.001	150.462	80.002	19.993	104.295	19.925	3.896	0.521
142.501	150.652	80.001	19.993	104.297	19.923	4.060	0.530
143.001	150.906	80.002	19.992	104.301	19.920	4.297	0.477
143.501	151.163	80.000	19.994	104.295	19.921	4.179	0.478
144.001	151.433	80.001	19.993	104.276	19.918	4.403	0.519
144.501	151.674	80.001	19.995	104.264	19.923	4.069	0.519
145.001	151.912	80.000	19.994	104.258	19.922	4.121	0.495
145.500	152.172	80.001	19.993	104.251	19.922	4.137	0.488
146.001	152.468	80.001	19.994	104.258	19.920	4.293	0.527
146.501	152.681	80.002	19.993	104.301	19.919	4.373	0.533
147.001	152.937	80.001	19.994	104.320	19.922	4.161	0.489
147.501	153.194	80.002	19.994	104.326	19.925	3.956	0.491
148.001	153.430	80.001	19.994	104.328	19.924	3.990	0.503
148.501	153.733	80.002	19.993	104.326	19.922	4.170	0.516
149.001	153.891	80.002	19.994	104.299	19.922	4.130	0.500
149.501	154.172	80.003	19.995	104.291	19.921	4.230	0.450
150.001	154.430	80.001	19.994	104.284	19.919	4.326	0.490
150.501	154.694	80.001	19.992	104.281	19.924	3.967	0.531
151.001	154.923	80.001	19.994	104.276	19.928	3.734	0.507
151.501	155.158	80.000	19.993	104.277	19.925	3.915	0.478
152.001	155.427	79.999	19.993	104.278	19.925	3.883	0.484
152.501	155.655	80.000	19.993	104.284	19.928	3.707	0.501
153.001	155.944	80.000	19.992	104.291	19.923	4.040	0.507
153.500	156.174	80.001	19.994	104.298	19.927	3.765	0.518
154.001	156.396	80.000	19.994	104.300	19.932	3.418	0.485
154.501	156.697	80.002	19.995	104.300	19.929	3.655	0.487
155.000	156.939	80.001	19.995	104.301	19.933	3.360	0.533
155.500	157.183	80.000	19.994	104.301	19.924	3.992	0.515
156.000	157.447	80.002	19.995	104.302	19.921	4.222	0.497
156.501	157.718	80.003	19.993	104.302	19.929	3.655	0.521
157.001	157.982	80.002	19.994	104.301	19.925	3.943	0.535
157.501	158.223	80.001	19.992	104.299	19.927	3.797	0.520
158.001	158.474	80.001	19.994	104.297	19.924	3.983	0.499
158.501	158.738	80.001	19.993	104.290	19.929	3.656	0.504
159.001	158.996	80.001	19.995	104.283	19.926	3.865	0.518
159.501	159.247	80.000	19.995	104.279	19.923	4.059	0.516
160.000	159.499	80.001	19.995	104.275	19.929	3.597	0.506
160.500	159.751	80.000	19.994	104.270	19.921	4.190	0.503
161.001	160.004	79.999	19.994	104.268	19.927	3.747	0.504
161.501	160.268	80.000	19.994	104.267	19.924	3.983	0.511
162.001	160.511	80.001	19.994	104.264	19.925	3.911	0.512
162.501	160.790	80.001	19.994	104.267	19.925	3.941	0.514
163.001	161.037	80.001	19.994	104.270	19.930	3.562	0.524
163.501	161.281	80.001	19.993	104.274	19.926	3.847	0.509
164.001	161.543	80.000	19.994	104.279	19.923	4.051	0.498
164.501	161.798	80.001	19.996	104.284	19.918	4.458	0.511
165.001	162.013	80.002	19.996	104.281	19.927	3.793	0.494
165.501	162.296	79.999	19.995	104.280	19.928	3.726	0.485
166.001	162.528	80.002	19.996	104.280	19.925	3.911	0.506
166.501	162.847	80.003	19.995	104.281	19.922	4.139	0.532
167.001	163.111	80.002	19.995	104.276	19.921	4.243	0.567
167.501	163.335	80.001	19.995	104.275	19.920	4.303	0.536
168.001	163.628	80.002	19.995	104.271	19.921	4.191	0.502
168.501	163.825	80.001	19.995	104.269	19.923	4.035	0.504
169.001	164.063	80.001	19.996	104.266	19.921	4.225	0.463
169.501	164.353	80.000	19.995	104.268	19.922	4.163	0.481
170.001	164.605	80.002	19.994	104.271	19.924	3.989	0.535
170.501	164.853	80.001	19.996	104.275	19.925	3.887	0.521
171.001	165.147	80.001	19.994	104.276	19.922	4.113	0.521
171.501	165.347	80.001	19.995	104.278	19.922	4.151	0.518
172.001	165.621	80.002	19.994	104.277	19.924	3.977	0.484
172.501	165.899	80.002	19.995	104.273	19.922	4.123	0.513
