Sample ID:	C:\MCC\MCC Cal\Test\Roof_Felt_MCC_30K_min_210930_R3.txt
Sample Weight (mg):	4.89
Heating Rate (C/s):	0.5
Combustor Temp (C):	900
N2 Flow Rate (cc/min):	80
O2 Flow Rate (cc/min):	20
Calibration File:	C:\MCC\MCC Cal\Coeff1 JN10440_30_210304.txt.txt
T Correction Coefficients:	0	1.024463	0
Time Shift (s):	14
*
Time (s)	Temperature (C)	N2 flow rate (cc/min)	O2 flow rate (cc/min)	Flow Rate (cc/min)	Oxygen (%)	HRR (W/g)	Heating rate (C/s)
0.000	107.025	80.000	19.995	100.573	20.195	0.108	-0.010
0.500	107.030	80.000	19.997	100.575	20.192	0.311	0.003
1.000	107.042	80.001	19.998	100.578	20.194	0.196	0.013
1.500	107.018	79.999	19.997	100.581	20.191	0.358	0.002
2.000	107.050	80.000	19.997	100.586	20.193	0.240	-0.002
2.500	107.027	80.001	19.995	100.589	20.192	0.334	0.009
3.000	107.045	80.000	19.996	100.594	20.193	0.265	0.002
3.500	107.054	79.999	19.995	100.599	20.189	0.493	0.011
4.000	107.028	80.000	19.996	100.598	20.191	0.380	0.005
4.500	107.022	80.000	19.996	100.594	20.194	0.201	-0.025
5.000	107.030	80.001	19.995	100.595	20.196	0.039	-0.015
5.500	107.045	80.000	19.996	100.588	20.193	0.244	0.013
6.000	107.054	80.000	19.996	100.583	20.193	0.258	0.024
6.500	107.018	80.001	19.995	100.585	20.197	-0.007	-0.001
7.000	107.039	80.001	19.995	100.584	20.194	0.182	-0.021
7.500	107.024	80.000	19.995	100.582	20.195	0.125	-0.004
8.000	107.034	80.000	19.995	100.584	20.194	0.196	0.000
8.500	107.013	80.000	19.995	100.589	20.192	0.321	-0.008
9.000	107.040	80.001	19.994	100.590	20.194	0.185	-0.002
9.500	107.042	80.001	19.995	100.598	20.190	0.450	0.017
10.000	107.009	80.001	19.995	100.605	20.193	0.235	-0.001
10.500	107.038	80.001	19.994	100.611	20.193	0.238	-0.017
11.000	107.018	80.001	19.994	100.612	20.191	0.376	0.002
11.500	107.043	80.001	19.995	100.614	20.190	0.458	0.007
12.000	107.045	80.000	19.996	100.614	20.192	0.307	0.016
12.500	107.036	80.000	19.995	100.614	20.188	0.580	0.010
13.000	107.017	80.001	19.995	100.615	20.193	0.237	-0.018
13.500	106.993	80.001	19.996	100.615	20.192	0.330	-0.035
14.001	107.031	80.001	19.995	100.615	20.193	0.265	-0.014
14.501	107.030	80.002	19.995	100.615	20.188	0.539	0.025
15.000	107.054	80.001	19.995	100.616	20.190	0.412	0.029
15.500	107.022	80.000	19.995	100.619	20.189	0.525	0.007
16.000	107.041	80.002	19.995	100.622	20.187	0.619	-0.010
16.500	107.011	80.000	19.995	100.626	20.187	0.642	-0.012
17.000	107.027	80.000	19.994	100.627	20.185	0.741	-0.013
17.500	107.030	80.001	19.996	100.630	20.184	0.806	0.003
18.000	107.059	80.001	19.996	100.633	20.185	0.750	0.025
18.500	107.061	80.001	19.995	100.638	20.185	0.730	0.031
19.000	107.082	80.001	19.995	100.642	20.184	0.817	0.027
19.500	107.069	80.001	19.995	100.649	20.185	0.762	0.015
20.000	107.103	80.001	19.996	100.653	20.182	0.921	0.014
20.500	107.138	80.001	19.995	100.653	20.181	1.035	0.045
21.000	107.135	80.000	19.994	100.656	20.182	0.937	0.051
21.500	107.155	80.001	19.996	100.664	20.180	1.074	0.024
22.000	107.131	80.001	19.996	100.672	20.178	1.173	0.006
22.500	107.182	80.001	19.995	100.680	20.179	1.130	0.012
23.000	107.232	79.999	19.995	100.689	20.178	1.220	0.064
23.500	107.190	79.999	19.996	100.696	20.176	1.332	0.054
24.000	107.224	80.002	19.996	100.698	20.176	1.357	0.000
24.500	107.238	79.999	19.996	100.706	20.178	1.217	0.021
25.000	107.281	80.001	19.996	100.714	20.175	1.387	0.053
25.500	107.286	80.000	19.996	100.721	20.171	1.686	0.052
26.000	107.321	79.999	19.996	100.729	20.172	1.617	0.044
26.500	107.344	79.999	19.996	100.739	20.169	1.772	0.049
27.000	107.396	80.000	19.996	100.745	20.167	1.891	0.067
27.500	107.416	80.000	19.995	100.753	20.168	1.825	0.074
28.000	107.449	80.000	19.996	100.760	20.166	1.949	0.063
28.500	107.488	80.001	19.997	100.766	20.168	1.822	0.062
29.000	107.504	80.000	19.996	100.769	20.165	2.030	0.064
29.500	107.589	80.000	19.996	100.770	20.164	2.101	0.078
30.000	107.603	80.000	19.996	100.770	20.165	2.037	0.100
30.500	107.655	80.000	19.997	100.771	20.163	2.175	0.083
31.000	107.709	80.001	19.997	100.778	20.161	2.274	0.086
31.500	107.743	79.999	19.997	100.786	20.162	2.264	0.097
32.000	107.844	80.000	19.997	100.793	20.161	2.303	0.112
32.500	107.852	80.000	19.997	100.796	20.161	2.317	0.122
33.000	107.939	80.000	19.996	100.797	20.158	2.472	0.102
33.500	107.972	80.000	19.997	100.791	20.159	2.423	0.108
34.000	108.041	80.001	19.996	100.790	20.158	2.497	0.111
34.500	108.107	80.001	19.996	100.789	20.162	2.232	0.119
35.000	108.186	80.001	19.997	100.792	20.158	2.505	0.140
35.501	108.249	80.000	19.996	100.796	20.160	2.367	0.143
36.001	108.317	80.001	19.997	100.801	20.155	2.668	0.136
36.500	108.343	80.002	19.996	100.798	20.159	2.399	0.113
37.000	108.475	80.001	19.997	100.793	20.161	2.307	0.126
37.500	108.527	80.002	19.997	100.788	20.157	2.549	0.172
38.000	108.582	80.002	19.995	100.783	20.156	2.650	0.146
38.500	108.683	79.999	19.996	100.780	20.158	2.499	0.131
39.000	108.739	80.001	19.997	100.783	20.156	2.625	0.156
39.500	108.839	80.002	19.996	100.788	20.157	2.541	0.157
40.001	108.886	80.001	19.996	100.788	20.154	2.775	0.151
40.501	108.971	80.000	19.996	100.788	20.155	2.653	0.139
41.000	109.083	80.001	19.996	100.784	20.155	2.681	0.165
41.500	109.130	80.000	19.996	100.778	20.158	2.520	0.178
42.000	109.229	80.001	19.996	100.774	20.156	2.649	0.153
42.500	109.383	80.001	19.997	100.777	20.156	2.615	0.199
43.000	109.412	80.002	19.996	100.782	20.158	2.497	0.218
43.500	109.537	80.001	19.996	100.783	20.155	2.651	0.169
44.001	109.651	80.001	19.995	100.782	20.155	2.711	0.196
44.501	109.717	80.000	19.995	100.782	20.156	2.617	0.209
45.000	109.799	80.002	19.996	100.782	20.153	2.801	0.164
45.500	109.897	80.002	19.995	100.783	20.155	2.661	0.164
46.000	110.000	80.001	19.995	100.789	20.153	2.789	0.191
46.500	110.091	80.002	19.996	100.796	20.156	2.631	0.197
47.000	110.168	80.002	19.997	100.802	20.154	2.759	0.181
47.500	110.300	80.002	19.996	100.805	20.157	2.566	0.189
48.000	110.389	80.001	19.996	100.802	20.154	2.750	0.215
48.500	110.458	80.002	19.997	100.801	20.157	2.545	0.190
49.000	110.580	80.003	19.997	100.799	20.157	2.542	0.174
49.500	110.740	80.001	19.997	100.791	20.160	2.393	0.236
50.001	110.820	80.000	19.996	100.786	20.156	2.599	0.261
50.501	110.946	80.002	19.996	100.783	20.157	2.567	0.223
51.000	111.046	80.001	19.998	100.777	20.155	2.671	0.216
51.500	111.117	80.002	19.997	100.774	20.158	2.500	0.199
52.000	111.267	80.002	19.998	100.773	20.155	2.677	0.196
52.500	111.332	80.002	19.997	100.770	20.155	2.664	0.218
53.000	111.467	80.002	19.998	100.769	20.157	2.525	0.207
53.500	111.556	80.001	19.997	100.768	20.157	2.574	0.212
54.000	111.658	80.002	19.997	100.766	20.159	2.433	0.208
54.500	111.779	80.002	19.997	100.766	20.157	2.534	0.207
55.001	111.907	80.002	19.997	100.766	20.158	2.500	0.236
55.501	112.022	80.003	19.997	100.765	20.157	2.578	0.246
56.001	112.136	80.002	19.996	100.765	20.154	2.731	0.236
56.500	112.271	80.001	19.997	100.765	20.157	2.581	0.239
57.000	112.375	80.001	19.997	100.765	20.154	2.725	0.244
57.500	112.528	80.001	19.996	100.765	20.155	2.691	0.247
58.000	112.607	80.001	19.997	100.768	20.156	2.612	0.244
58.500	112.737	80.001	19.996	100.772	20.154	2.752	0.221
59.000	112.831	79.999	19.996	100.778	20.154	2.773	0.216
59.500	112.975	80.001	19.997	100.786	20.156	2.630	0.231
60.000	113.061	80.002	19.996	100.793	20.157	2.580	0.234
60.500	113.192	80.002	19.996	100.800	20.155	2.653	0.224
61.000	113.366	80.000	19.996	100.803	20.153	2.785	0.261
61.500	113.479	80.001	19.997	100.805	20.154	2.757	0.296
62.000	113.621	80.000	19.997	100.806	20.153	2.830	0.271
62.500	113.756	80.001	19.996	100.807	20.153	2.787	0.267
63.001	113.904	80.001	19.996	100.807	20.151	2.973	0.280
63.501	114.005	80.002	19.997	100.808	20.150	2.989	0.265
64.001	114.154	80.002	19.997	100.815	20.151	2.962	0.249
64.500	114.279	80.002	19.997	100.819	20.151	2.913	0.262
65.000	114.414	80.002	19.997	100.819	20.151	2.971	0.267
65.501	114.516	80.002	19.996	100.820	20.151	2.911	0.249
66.001	114.657	80.003	19.996	100.819	20.151	2.957	0.240
66.500	114.813	80.002	19.995	100.813	20.150	3.023	0.270
67.000	114.951	80.002	19.995	100.811	20.152	2.847	0.296
67.501	115.090	80.003	19.996	100.813	20.147	3.198	0.285
68.001	115.259	80.002	19.995	100.819	20.150	3.024	0.292
68.501	115.396	80.003	19.996	100.825	20.151	2.962	0.307
69.001	115.555	80.002	19.995	100.830	20.152	2.902	0.301
69.500	115.715	80.003	19.995	100.836	20.151	2.969	0.307
70.000	115.815	80.004	19.995	100.840	20.148	3.113	0.289
70.501	115.984	80.002	19.995	100.842	20.150	3.030	0.264
71.001	116.101	80.003	19.994	100.843	20.152	2.899	0.277
71.500	116.225	80.003	19.994	100.844	20.148	3.109	0.264
72.001	116.440	80.002	19.995	100.843	20.150	3.016	0.290
72.501	116.584	80.004	19.994	100.840	20.149	3.090	0.349
73.001	116.744	80.003	19.996	100.840	20.151	2.973	0.331
73.501	116.837	80.003	19.995	100.841	20.145	3.352	0.279
74.000	117.052	80.003	19.994	100.838	20.145	3.341	0.281
74.500	117.207	80.003	19.995	100.838	20.146	3.274	0.339
75.000	117.366	80.003	19.994	100.840	20.148	3.146	0.342
75.500	117.506	80.002	19.995	100.840	20.147	3.221	0.307
76.001	117.680	80.001	19.995	100.840	20.146	3.253	0.306
76.501	117.858	80.001	19.994	100.843	20.144	3.403	0.333
77.000	118.012	80.003	19.995	100.846	20.146	3.239	0.342
77.501	118.141	80.003	19.994	100.843	20.145	3.311	0.308
78.001	118.336	80.002	19.996	100.839	20.146	3.283	0.304
78.501	118.470	80.001	19.995	100.837	20.145	3.313	0.326
79.000	118.623	80.000	19.995	100.837	20.144	3.400	0.308
79.500	118.831	80.001	19.996	100.834	20.144	3.403	0.325
80.000	118.975	80.001	19.994	100.837	20.142	3.524	0.357
80.500	119.175	80.000	19.996	100.841	20.146	3.269	0.348
81.000	119.340	80.000	19.996	100.842	20.146	3.295	0.354
81.500	119.519	79.998	19.996	100.843	20.143	3.430	0.354
82.000	119.670	79.999	19.996	100.846	20.145	3.338	0.338
82.500	119.865	80.001	19.995	100.848	20.145	3.308	0.338
83.000	120.062	80.000	19.994	100.848	20.143	3.455	0.369
83.500	120.228	80.001	19.996	100.849	20.144	3.407	0.378
84.000	120.409	80.000	19.995	100.848	20.144	3.396	0.355
84.500	120.603	80.001	19.996	100.846	20.144	3.410	0.361
85.000	120.794	80.000	19.994	100.845	20.143	3.460	0.380
85.500	120.987	80.000	19.995	100.844	20.144	3.378	0.384
86.000	121.119	80.000	19.996	100.844	20.143	3.474	0.354
86.500	121.303	80.001	19.995	100.845	20.146	3.279	0.321
87.000	121.493	79.999	19.996	100.846	20.146	3.288	0.345
87.500	121.671	80.000	19.996	100.848	20.146	3.286	0.371
88.000	121.864	79.999	19.995	100.848	20.143	3.463	0.369
88.500	122.031	80.000	19.996	100.847	20.144	3.403	0.366
89.000	122.206	80.000	19.997	100.847	20.145	3.352	0.351
89.500	122.405	80.000	19.995	100.848	20.145	3.325	0.359
90.000	122.585	80.000	19.995	100.847	20.143	3.451	0.377
90.500	122.775	80.000	19.996	100.848	20.144	3.370	0.374
91.000	122.981	79.999	19.996	100.848	20.147	3.226	0.383
91.500	123.150	80.000	19.995	100.847	20.145	3.306	0.386
92.000	123.346	80.001	19.995	100.846	20.143	3.462	0.370
92.501	123.501	79.999	19.997	100.847	20.145	3.352	0.358
93.001	123.720	79.999	19.997	100.847	20.145	3.308	0.363
93.500	123.926	79.999	19.996	100.847	20.144	3.409	0.399
94.000	124.114	80.000	19.996	100.848	20.142	3.538	0.409
94.500	124.280	80.000	19.997	100.848	20.142	3.502	0.374
95.000	124.505	80.002	19.996	100.847	20.145	3.347	0.373
95.500	124.697	80.002	19.995	100.848	20.142	3.552	0.404
96.000	124.893	80.001	19.996	100.849	20.143	3.483	0.402
96.500	125.069	80.001	19.996	100.848	20.142	3.502	0.380
97.000	125.289	80.003	19.996	100.848	20.143	3.458	0.384
97.500	125.526	80.002	19.996	100.848	20.142	3.531	0.426
98.000	125.696	80.001	19.997	100.847	20.143	3.446	0.432
98.500	125.909	80.001	19.996	100.846	20.142	3.543	0.395
99.000	126.073	80.001	19.996	100.847	20.141	3.554	0.380
99.500	126.272	80.001	19.995	100.846	20.142	3.502	0.370
100.000	126.483	80.001	19.995	100.846	20.141	3.566	0.386
100.500	126.750	80.000	19.996	100.847	20.144	3.396	0.444
101.000	126.910	80.002	19.995	100.847	20.142	3.531	0.453
101.500	127.112	80.001	19.996	100.847	20.140	3.648	0.395
102.000	127.296	80.000	19.995	100.850	20.139	3.688	0.374
102.500	127.507	80.001	19.996	100.852	20.142	3.510	0.390
103.000	127.722	80.001	19.995	100.852	20.143	3.463	0.410
103.500	127.946	80.001	19.996	100.853	20.139	3.743	0.432
104.000	128.148	80.000	19.996	100.853	20.141	3.559	0.433
104.500	128.377	80.001	19.997	100.851	20.141	3.570	0.429
105.000	128.579	80.001	19.996	100.848	20.141	3.585	0.431
105.500	128.789	80.001	19.995	100.847	20.144	3.396	0.421
106.000	128.981	80.001	19.996	100.847	20.143	3.454	0.407
106.500	129.202	80.001	19.996	100.846	20.141	3.600	0.408
107.000	129.401	80.001	19.996	100.846	20.140	3.642	0.416
107.500	129.593	80.001	19.997	100.846	20.140	3.661	0.405
108.000	129.829	80.001	19.997	100.847	20.140	3.654	0.409
108.500	130.024	80.001	19.997	100.848	20.139	3.713	0.429
109.000	130.218	80.001	19.996	100.847	20.141	3.571	0.410
109.500	130.430	80.000	19.996	100.848	20.139	3.716	0.398
110.000	130.649	80.000	19.997	100.849	20.137	3.874	0.419
110.500	130.870	80.001	19.996	100.849	20.140	3.623	0.435
111.000	131.090	80.000	19.998	100.848	20.142	3.518	0.440
111.500	131.337	79.999	19.996	100.854	20.139	3.690	0.454
112.000	131.503	79.999	19.997	100.854	20.144	3.384	0.440
112.500	131.730	79.999	19.998	100.852	20.143	3.463	0.403
113.000	131.945	80.000	19.996	100.853	20.143	3.454	0.417
113.500	132.165	79.999	19.997	100.852	20.139	3.707	0.438
114.000	132.387	79.999	19.997	100.847	20.140	3.647	0.439
114.500	132.616	80.000	19.997	100.847	20.140	3.628	0.447
115.000	132.814	79.999	19.996	100.847	20.140	3.667	0.439
115.500	133.014	80.001	19.997	100.847	20.140	3.651	0.412
116.000	133.244	79.999	19.996	100.847	20.141	3.614	0.414
116.500	133.518	80.000	19.997	100.846	20.138	3.771	0.467
117.001	133.721	79.999	19.996	100.845	20.140	3.647	0.491
117.501	133.935	80.000	19.996	100.844	20.145	3.338	0.447
118.001	134.184	80.000	19.996	100.842	20.142	3.546	0.440
118.501	134.368	80.000	19.996	100.841	20.147	3.208	0.448
119.000	134.610	79.999	19.997	100.840	20.142	3.511	0.430
119.500	134.795	80.000	19.997	100.840	20.145	3.318	0.427
120.000	135.055	80.000	19.998	100.841	20.142	3.500	0.436
120.500	135.264	80.000	19.996	100.844	20.143	3.472	0.457
121.000	135.491	79.999	19.996	100.845	20.142	3.515	0.452
121.500	135.711	80.000	19.997	100.846	20.142	3.548	0.441
122.000	135.943	80.001	19.997	100.846	20.141	3.607	0.450
122.500	136.156	80.001	19.997	100.841	20.143	3.442	0.449
123.000	136.344	80.002	19.996	100.840	20.143	3.463	0.423
123.500	136.586	80.001	19.997	100.840	20.144	3.393	0.416
124.000	136.792	80.002	19.997	100.840	20.143	3.430	0.439
124.500	137.064	80.001	19.996	100.840	20.140	3.660	0.462
125.000	137.260	80.001	19.996	100.844	20.142	3.522	0.473
125.501	137.546	80.003	19.996	100.844	20.143	3.483	0.476
126.001	137.749	80.003	19.996	100.844	20.143	3.430	0.485
126.500	138.009	80.002	19.997	100.844	20.143	3.444	0.476
127.000	138.242	80.002	19.997	100.844	20.145	3.311	0.478
127.500	138.453	80.003	19.996	100.845	20.143	3.481	0.469
128.000	138.697	80.002	19.996	100.844	20.142	3.527	0.449
128.500	138.906	80.002	19.995	100.845	20.145	3.357	0.454
129.000	139.144	80.001	19.995	100.845	20.145	3.348	0.450
129.500	139.374	80.003	19.995	100.845	20.143	3.439	0.457
130.000	139.563	80.002	19.995	100.845	20.143	3.462	0.443
130.500	139.861	80.003	19.995	100.845	20.143	3.465	0.453
131.000	140.060	80.002	19.996	100.845	20.142	3.539	0.492
131.500	140.294	80.003	19.997	100.845	20.141	3.589	0.465
132.000	140.513	80.003	19.995	100.845	20.139	3.683	0.443
132.500	140.790	80.001	19.996	100.846	20.143	3.437	0.475
133.000	141.011	80.001	19.995	100.847	20.143	3.424	0.497
133.500	141.232	80.003	19.996	100.847	20.141	3.577	0.470
134.000	141.487	80.000	19.996	100.847	20.141	3.600	0.459
134.500	141.731	80.000	19.995	100.846	20.142	3.522	0.488
135.000	141.911	80.001	19.996	100.846	20.143	3.442	0.462
135.500	142.139	80.001	19.996	100.845	20.143	3.431	0.416
136.000	142.406	80.000	19.996	100.845	20.144	3.393	0.452
136.500	142.620	80.000	19.996	100.845	20.146	3.255	0.488
137.000	142.838	80.000	19.997	100.846	20.145	3.325	0.456
137.500	143.110	80.002	19.995	100.846	20.145	3.357	0.461
138.000	143.349	80.000	19.996	100.848	20.145	3.306	0.500
138.500	143.579	80.001	19.995	100.848	20.145	3.338	0.490
139.000	143.824	79.999	19.996	100.848	20.146	3.272	0.472
139.500	144.066	80.001	19.997	100.849	20.140	3.621	0.481
140.000	144.311	80.000	19.996	100.850	20.146	3.233	0.487
140.500	144.556	80.001	19.996	100.850	20.143	3.458	0.489
141.000	144.798	80.001	19.997	100.849	20.142	3.495	0.489
141.500	145.068	80.001	19.996	100.847	20.144	3.410	0.499
142.000	145.252	80.001	19.996	100.847	20.141	3.570	0.483
142.500	145.480	80.000	19.996	100.844	20.145	3.324	0.433
143.000	145.711	80.000	19.995	100.844	20.140	3.628	0.436
143.500	145.944	80.001	19.995	100.844	20.144	3.368	0.462
144.000	146.234	80.001	19.997	100.846	20.142	3.495	0.493
144.500	146.464	80.001	19.996	100.845	20.145	3.309	0.521
145.000	146.675	80.000	19.996	100.845	20.143	3.454	0.481
145.500	146.921	80.000	19.997	100.846	20.143	3.470	0.449
146.000	147.161	80.001	19.996	100.846	20.143	3.440	0.471
146.500	147.377	80.000	19.996	100.846	20.145	3.320	0.471
147.000	147.649	80.001	19.996	100.847	20.145	3.311	0.472
147.500	147.874	80.001	19.997	100.847	20.147	3.216	0.493
148.000	148.138	80.001	19.997	100.847	20.144	3.389	0.493
148.500	148.356	80.001	19.996	100.847	20.145	3.341	0.485
149.000	148.632	80.000	19.997	100.846	20.143	3.440	0.488
149.500	148.848	80.001	19.997	100.846	20.145	3.329	0.493
150.000	149.075	80.000	19.996	100.846	20.144	3.375	0.468
150.500	149.356	80.002	19.996	100.846	20.143	3.437	0.476
151.000	149.577	80.002	19.997	100.846	20.147	3.175	0.504
151.500	149.872	80.001	19.996	100.846	20.144	3.400	0.508
152.000	150.100	80.001	19.996	100.846	20.145	3.332	0.520
152.500	150.331	80.001	19.997	100.847	20.144	3.394	0.492
153.000	150.579	80.001	19.996	100.846	20.145	3.309	0.469
153.500	150.794	80.003	19.996	100.847	20.144	3.371	0.471
154.000	151.059	80.003	19.996	100.846	20.141	3.564	0.471
154.500	151.309	80.002	19.996	100.847	20.147	3.228	0.498
155.000	151.529	80.002	19.996	100.846	20.143	3.431	0.493
155.500	151.775	80.003	19.996	100.846	20.143	3.456	0.468
156.000	152.069	80.003	19.996	100.846	20.144	3.406	0.503
156.500	152.299	80.003	19.996	100.846	20.146	3.236	0.532
157.000	152.514	80.004	19.996	100.846	20.145	3.321	0.484
157.500	152.752	80.002	19.996	100.847	20.144	3.376	0.449
158.000	153.036	80.003	19.995	100.847	20.144	3.376	0.488
158.500	153.258	80.003	19.996	100.847	20.144	3.376	0.514
159.000	153.490	80.003	19.995	100.847	20.142	3.509	0.480
159.500	153.733	80.002	19.995	100.846	20.140	3.644	0.464
160.000	154.007	80.002	19.996	100.846	20.142	3.534	0.496
160.500	154.223	80.001	19.995	100.846	20.147	3.212	0.503
161.000	154.478	80.003	19.995	100.846	20.144	3.408	0.481
161.500	154.752	80.002	19.996	100.846	20.142	3.504	0.500
162.000	154.962	80.002	19.996	100.845	20.140	3.617	0.506
162.500	155.207	80.000	19.996	100.845	20.144	3.369	0.470
163.000	155.435	80.002	19.997	100.844	20.144	3.378	0.464
163.500	155.683	80.001	19.996	100.843	20.144	3.375	0.475
164.000	155.935	80.001	19.996	100.842	20.143	3.468	0.488
164.500	156.184	80.002	19.995	100.841	20.143	3.465	0.500
165.000	156.455	80.001	19.996	100.841	20.144	3.403	0.510
165.500	156.657	80.000	19.996	100.841	20.141	3.583	0.497
166.001	156.897	80.001	19.995	100.842	20.142	3.516	0.458
166.500	157.174	80.000	19.994	100.840	20.142	3.544	0.480
167.000	157.430	80.003	19.995	100.838	20.143	3.440	0.525
167.500	157.686	80.000	19.995	100.835	20.142	3.530	0.523
168.000	157.929	80.001	19.996	100.835	20.141	3.557	0.506
168.500	158.182	79.999	19.997	100.835	20.144	3.371	0.498
169.000	158.389	80.001	19.995	100.836	20.145	3.353	0.478
169.500	158.629	80.000	19.995	100.837	20.146	3.279	0.453
170.000	158.900	80.001	19.995	100.839	20.139	3.728	0.479
170.500	159.145	79.999	19.995	100.839	20.144	3.369	0.514
171.000	159.397	80.001	19.996	100.839	20.141	3.586	0.506
171.500	159.652	80.001	19.996	100.838	20.140	3.652	0.502
172.000	159.853	80.001	19.996	100.837	20.140	3.631	0.481
172.501	160.109	80.000	19.996	100.835	20.140	3.626	0.456
