Sample ID:	C:\MCC\MCC Cal\Test\PC_MCC_30K_min_210921_R3.txt
Sample Weight (mg):	4.83
Heating Rate (C/s):	0.5
Combustor Temp (C):	900
N2 Flow Rate (cc/min):	80
O2 Flow Rate (cc/min):	20
Calibration File:	C:\MCC\MCC Cal\Coeff1 JN10440_30_210304.txt.txt
T Correction Coefficients:	0	1.024463	0
Time Shift (s):	14
*
Time (s)	Temperature (C)	N2 flow rate (cc/min)	O2 flow rate (cc/min)	Flow Rate (cc/min)	Oxygen (%)	HRR (W/g)	Heating rate (C/s)
0.000	109.475	79.996	19.995	100.139	19.973	0.103	-0.002
0.500	109.448	79.997	19.995	100.137	19.975	-0.037	-0.024
1.000	109.477	79.996	19.995	100.134	19.974	0.073	-0.018
1.500	109.516	79.996	19.995	100.135	19.975	0.017	0.035
2.000	109.472	79.997	19.995	100.133	19.974	0.058	0.031
2.500	109.445	79.997	19.995	100.138	19.974	0.077	-0.039
3.000	109.475	79.996	19.995	100.139	19.972	0.169	-0.034
3.500	109.475	79.995	19.995	100.142	19.972	0.188	0.017
4.000	109.420	79.995	19.995	100.144	19.973	0.105	-0.012
4.500	109.471	79.997	19.995	100.150	19.973	0.139	-0.029
5.000	109.452	79.997	19.996	100.147	19.978	-0.195	0.014
5.500	109.457	79.995	19.996	100.144	19.977	-0.113	0.009
6.000	109.454	79.997	19.994	100.140	19.976	-0.051	-0.006
6.500	109.493	79.996	19.994	100.140	19.974	0.073	0.019
7.000	109.455	79.996	19.995	100.139	19.973	0.143	0.018
7.500	109.450	79.996	19.994	100.143	19.974	0.035	-0.021
8.000	109.438	79.995	19.994	100.148	19.974	0.059	-0.030
8.500	109.414	79.996	19.996	100.152	19.973	0.153	-0.026
9.001	109.429	79.995	19.995	100.150	19.974	0.024	-0.022
9.501	109.436	79.996	19.994	100.146	19.973	0.136	0.006
10.001	109.445	79.996	19.995	100.139	19.973	0.106	0.019
10.500	109.438	79.996	19.995	100.138	19.974	0.066	0.009
11.000	109.428	79.996	19.995	100.139	19.971	0.281	-0.008
11.500	109.440	79.997	19.995	100.140	19.972	0.166	-0.008
12.000	109.410	79.996	19.995	100.138	19.973	0.143	-0.008
12.500	109.413	79.997	19.994	100.138	19.973	0.126	-0.023
13.000	109.407	79.997	19.994	100.139	19.971	0.230	-0.015
13.501	109.448	79.997	19.995	100.138	19.972	0.197	0.016
14.001	109.408	79.997	19.995	100.141	19.972	0.181	0.018
14.500	109.429	79.998	19.997	100.149	19.970	0.298	-0.009
15.000	109.423	79.997	19.994	100.155	19.972	0.157	-0.002
15.500	109.423	79.999	19.996	100.156	19.973	0.152	0.005
16.000	109.445	79.997	19.995	100.160	19.973	0.122	0.008
16.500	109.454	79.998	19.996	100.167	19.972	0.169	0.027
17.000	109.393	79.997	19.995	100.174	19.969	0.394	-0.010
17.500	109.443	79.999	19.996	100.177	19.972	0.197	-0.032
18.000	109.422	80.000	19.996	100.179	19.968	0.440	0.009
18.500	109.428	79.999	19.995	100.177	19.968	0.419	0.007
19.000	109.393	79.998	19.995	100.178	19.967	0.491	-0.022
19.500	109.409	79.999	19.994	100.178	19.966	0.571	-0.024
20.000	109.416	79.999	19.994	100.183	19.966	0.550	0.002
20.500	109.391	80.000	19.995	100.196	19.967	0.501	0.002
21.000	109.415	79.999	19.996	100.212	19.966	0.580	-0.009
21.500	109.469	79.998	19.995	100.220	19.964	0.684	0.039
22.000	109.431	79.999	19.996	100.231	19.964	0.712	0.047
22.500	109.460	79.998	19.994	100.240	19.961	0.890	0.003
23.000	109.475	79.999	19.994	100.245	19.962	0.815	0.017
23.500	109.492	79.997	19.994	100.250	19.959	1.018	0.038
24.000	109.503	80.000	19.996	100.256	19.958	1.110	0.030
24.500	109.502	79.998	19.994	100.252	19.956	1.241	0.019
25.000	109.540	79.997	19.993	100.255	19.953	1.386	0.023
25.500	109.550	79.998	19.996	100.258	19.954	1.339	0.042
26.000	109.580	79.997	19.995	100.259	19.955	1.282	0.044
26.500	109.567	79.997	19.995	100.260	19.955	1.280	0.029
27.000	109.647	79.997	19.997	100.271	19.953	1.442	0.042
27.500	109.655	79.998	19.994	100.281	19.953	1.416	0.078
28.000	109.675	79.997	19.995	100.283	19.949	1.657	0.058
28.500	109.706	79.998	19.996	100.290	19.951	1.521	0.039
29.000	109.714	79.997	19.995	100.298	19.950	1.613	0.045
29.500	109.757	79.998	19.996	100.302	19.951	1.568	0.045
30.000	109.820	79.998	19.994	100.302	19.950	1.584	0.078
30.500	109.864	79.996	19.996	100.308	19.948	1.764	0.107
31.000	109.909	79.997	19.996	100.309	19.952	1.490	0.098
31.500	109.937	79.998	19.998	100.310	19.950	1.635	0.081
32.000	109.992	79.999	19.996	100.310	19.948	1.710	0.078
32.500	110.054	79.998	19.996	100.310	19.947	1.836	0.100
33.000	110.111	79.997	19.996	100.310	19.946	1.844	0.118
33.500	110.102	79.998	19.997	100.309	19.945	1.949	0.084
34.000	110.228	79.997	19.996	100.309	19.946	1.844	0.082
34.500	110.277	79.997	19.995	100.309	19.946	1.869	0.146
35.000	110.369	79.998	19.997	100.309	19.947	1.813	0.158
35.500	110.365	79.997	19.995	100.308	19.944	2.023	0.114
36.000	110.405	79.997	19.996	100.308	19.948	1.717	0.062
36.500	110.470	79.997	19.996	100.307	19.942	2.133	0.071
37.000	110.544	79.999	19.995	100.307	19.945	1.939	0.122
37.500	110.599	79.997	19.996	100.307	19.945	1.909	0.134
38.000	110.669	79.999	19.996	100.309	19.944	1.979	0.127
38.500	110.741	79.999	19.995	100.310	19.945	1.946	0.133
39.000	110.792	79.999	19.996	100.310	19.943	2.084	0.132
39.500	110.867	79.999	19.997	100.310	19.944	2.026	0.125
40.000	110.959	79.999	19.996	100.315	19.941	2.196	0.147
40.500	111.008	79.999	19.996	100.322	19.946	1.860	0.153
41.000	111.090	79.999	19.995	100.328	19.943	2.061	0.136
41.500	111.174	79.999	19.995	100.335	19.945	1.920	0.149
42.000	111.221	79.999	19.994	100.341	19.942	2.114	0.149
42.500	111.344	79.999	19.996	100.342	19.941	2.185	0.150
43.000	111.431	80.000	19.995	100.342	19.943	2.037	0.190
43.500	111.522	79.999	19.995	100.340	19.942	2.138	0.194
44.000	111.590	79.999	19.994	100.336	19.943	2.058	0.168
44.500	111.650	80.000	19.996	100.335	19.942	2.129	0.143
45.000	111.751	79.999	19.995	100.337	19.941	2.217	0.144
45.500	111.879	80.000	19.995	100.337	19.939	2.304	0.195
46.000	111.929	80.000	19.995	100.340	19.940	2.285	0.204
46.500	112.019	79.999	19.995	100.346	19.937	2.480	0.159
47.000	112.156	79.999	19.995	100.347	19.939	2.325	0.184
47.500	112.217	79.998	19.995	100.348	19.937	2.447	0.213
48.000	112.354	80.000	19.995	100.348	19.938	2.377	0.198
48.500	112.443	79.997	19.995	100.349	19.935	2.564	0.212
49.000	112.522	79.999	19.995	100.349	19.938	2.404	0.197
49.500	112.679	79.998	19.994	100.349	19.939	2.339	0.202
50.000	112.755	79.998	19.994	100.350	19.934	2.639	0.234
50.500	112.877	79.999	19.996	100.350	19.935	2.580	0.215
51.000	112.933	79.997	19.995	100.350	19.934	2.680	0.188
51.500	113.099	79.997	19.994	100.350	19.938	2.384	0.200
52.000	113.174	79.998	19.996	100.350	19.933	2.697	0.231
52.500	113.311	79.998	19.995	100.350	19.933	2.711	0.226
53.000	113.382	79.997	19.996	100.351	19.934	2.659	0.210
53.501	113.535	79.996	19.995	100.354	19.932	2.806	0.216
54.001	113.658	79.996	19.996	100.355	19.935	2.614	0.250
54.500	113.779	79.996	19.996	100.355	19.934	2.619	0.260
55.001	113.891	79.998	19.995	100.355	19.933	2.713	0.238
55.501	113.997	79.996	19.996	100.354	19.937	2.442	0.225
56.000	114.123	79.996	19.995	100.351	19.933	2.729	0.225
56.500	114.276	79.997	19.996	100.350	19.934	2.675	0.255
57.000	114.407	79.997	19.997	100.351	19.934	2.621	0.281
57.500	114.514	79.996	19.996	100.353	19.933	2.687	0.261
58.000	114.675	79.996	19.996	100.354	19.934	2.622	0.254
58.500	114.773	79.996	19.997	100.355	19.932	2.782	0.264
59.000	114.909	79.996	19.997	100.356	19.936	2.542	0.246
59.500	115.024	79.996	19.996	100.355	19.933	2.722	0.243
60.000	115.176	79.997	19.996	100.353	19.932	2.782	0.259
60.500	115.301	79.995	19.995	100.353	19.933	2.724	0.272
61.000	115.418	79.995	19.996	100.354	19.936	2.552	0.259
61.500	115.541	79.996	19.996	100.353	19.936	2.505	0.241
62.000	115.667	79.997	19.996	100.354	19.935	2.591	0.245
62.500	115.831	79.995	19.997	100.354	19.934	2.680	0.270
63.000	115.970	79.995	19.996	100.355	19.930	2.916	0.296
63.500	116.124	79.995	19.996	100.361	19.930	2.930	0.298
64.000	116.258	79.995	19.996	100.368	19.934	2.681	0.291
64.500	116.354	79.997	19.996	100.372	19.932	2.778	0.259
65.000	116.524	79.996	19.996	100.376	19.932	2.782	0.248
65.500	116.673	79.996	19.997	100.380	19.931	2.819	0.292
66.000	116.819	79.996	19.995	100.376	19.928	3.067	0.307
66.500	116.981	79.998	19.996	100.370	19.932	2.810	0.302
67.000	117.133	79.996	19.996	100.367	19.930	2.932	0.311
67.501	117.276	79.996	19.996	100.370	19.935	2.602	0.305
68.001	117.449	79.997	19.995	100.371	19.934	2.661	0.306
68.500	117.586	79.997	19.996	100.371	19.930	2.925	0.313
69.000	117.738	79.997	19.994	100.378	19.934	2.623	0.299
69.500	117.914	79.996	19.997	100.382	19.932	2.751	0.308
70.000	118.031	79.997	19.996	100.381	19.931	2.859	0.310
70.500	118.201	79.996	19.996	100.382	19.932	2.805	0.291
71.000	118.336	79.998	19.996	100.381	19.930	2.880	0.296
71.500	118.526	79.997	19.996	100.374	19.931	2.866	0.315
72.001	118.680	79.996	19.996	100.369	19.933	2.725	0.334
72.501	118.831	79.997	19.994	100.371	19.928	3.064	0.324
73.000	119.018	79.997	19.996	100.372	19.928	3.013	0.321
73.500	119.161	79.998	19.995	100.377	19.932	2.765	0.334
74.001	119.334	79.997	19.995	100.385	19.929	2.947	0.323
74.501	119.515	79.997	19.995	100.391	19.928	3.062	0.335
75.000	119.646	79.997	19.995	100.394	19.931	2.833	0.333
75.500	119.832	79.998	19.995	100.395	19.929	2.957	0.314
76.000	120.002	79.997	19.995	100.395	19.926	3.169	0.336
76.500	120.165	79.997	19.995	100.396	19.926	3.149	0.345
77.000	120.328	79.996	19.995	100.396	19.927	3.095	0.330
77.500	120.499	79.997	19.995	100.394	19.926	3.189	0.330
78.000	120.682	79.996	19.995	100.394	19.925	3.233	0.344
78.500	120.872	79.996	19.995	100.394	19.926	3.179	0.364
79.000	121.020	79.997	19.997	100.398	19.925	3.228	0.355
79.500	121.215	79.995	19.996	100.398	19.928	3.053	0.340
80.000	121.404	79.996	19.995	100.398	19.929	2.999	0.363
80.500	121.572	79.996	19.995	100.398	19.926	3.161	0.371
81.000	121.774	79.996	19.995	100.398	19.928	3.025	0.364
81.500	121.963	79.995	19.996	100.394	19.928	3.055	0.381
82.000	122.165	79.995	19.996	100.399	19.927	3.093	0.391
82.500	122.340	79.996	19.995	100.399	19.927	3.107	0.383
83.000	122.515	79.997	19.995	100.403	19.927	3.116	0.363
83.501	122.727	79.997	19.996	100.410	19.927	3.099	0.368
84.001	122.926	79.996	19.995	100.417	19.925	3.237	0.399
84.500	123.083	79.995	19.994	100.419	19.926	3.155	0.384
85.000	123.329	79.995	19.995	100.423	19.927	3.121	0.380
85.500	123.537	79.996	19.994	100.423	19.925	3.249	0.428
86.000	123.693	79.996	19.994	100.422	19.928	3.051	0.409
86.501	123.914	79.996	19.995	100.415	19.927	3.079	0.371
87.001	124.114	79.996	19.996	100.409	19.927	3.117	0.399
87.500	124.317	79.997	19.996	100.409	19.926	3.179	0.412
88.000	124.525	79.995	19.995	100.404	19.924	3.308	0.407
88.500	124.739	79.995	19.996	100.397	19.928	3.051	0.417
89.000	124.904	79.996	19.994	100.398	19.927	3.121	0.401
89.500	125.122	79.995	19.995	100.400	19.926	3.151	0.381
90.000	125.343	79.996	19.994	100.399	19.927	3.133	0.411
90.501	125.529	79.997	19.995	100.404	19.926	3.139	0.423
91.001	125.757	79.997	19.996	100.405	19.929	2.978	0.411
91.500	125.948	79.997	19.995	100.403	19.925	3.228	0.417
92.000	126.154	79.997	19.996	100.400	19.921	3.486	0.408
92.500	126.338	79.995	19.995	100.396	19.921	3.462	0.393
93.000	126.595	79.997	19.997	100.391	19.924	3.310	0.416
93.500	126.776	79.997	19.996	100.394	19.925	3.234	0.439
94.000	126.992	79.997	19.996	100.400	19.923	3.362	0.417
94.500	127.205	79.996	19.994	100.404	19.919	3.593	0.413
95.000	127.449	79.997	19.995	100.407	19.924	3.331	0.443
95.500	127.639	79.997	19.996	100.408	19.923	3.384	0.446
96.000	127.882	79.997	19.996	100.407	19.921	3.502	0.434
96.500	128.099	79.999	19.996	100.401	19.923	3.371	0.446
97.000	128.315	79.998	19.996	100.396	19.921	3.514	0.447
97.501	128.570	79.998	19.995	100.393	19.920	3.538	0.452
98.001	128.764	79.997	19.994	100.393	19.919	3.619	0.460
98.500	128.971	79.999	19.994	100.392	19.921	3.479	0.425
99.000	129.195	79.998	19.995	100.395	19.923	3.332	0.416
99.500	129.431	79.997	19.996	100.396	19.923	3.378	0.446
100.000	129.680	79.997	19.996	100.401	19.920	3.526	0.473
100.500	129.889	79.998	19.995	100.402	19.921	3.470	0.471
101.000	130.124	79.998	19.995	100.402	19.922	3.457	0.451
101.500	130.316	79.998	19.996	100.402	19.923	3.341	0.435
102.000	130.582	79.998	19.995	100.405	19.924	3.331	0.443
102.500	130.782	79.999	19.995	100.402	19.925	3.226	0.463
103.000	131.022	79.999	19.995	100.401	19.924	3.312	0.453
103.500	131.246	79.998	19.994	100.399	19.925	3.203	0.452
104.000	131.518	79.999	19.994	100.394	19.926	3.146	0.480
104.500	131.677	79.999	19.993	100.392	19.929	2.962	0.464
105.001	131.906	79.998	19.995	100.395	19.926	3.184	0.409
105.501	132.122	79.998	19.994	100.402	19.928	3.030	0.416
106.000	132.378	79.998	19.994	100.407	19.928	3.034	0.458
106.500	132.623	79.998	19.996	100.409	19.929	2.978	0.486
107.000	132.771	79.998	19.996	100.407	19.931	2.871	0.447
107.500	133.046	79.999	19.995	100.402	19.930	2.904	0.408
108.001	133.289	79.997	19.995	100.395	19.927	3.121	0.470
108.501	133.527	79.999	19.996	100.391	19.927	3.124	0.500
109.000	133.797	79.997	19.995	100.391	19.921	3.491	0.495
109.500	133.991	79.998	19.995	100.391	19.925	3.224	0.486
110.000	134.221	79.998	19.995	100.392	19.925	3.212	0.444
110.500	134.439	79.998	19.995	100.393	19.925	3.243	0.436
111.000	134.695	79.998	19.994	100.395	19.924	3.322	0.461
111.500	134.936	79.997	19.995	100.395	19.923	3.353	0.485
112.000	135.209	79.999	19.995	100.403	19.926	3.182	0.505
112.500	135.414	79.998	19.995	100.402	19.924	3.275	0.496
113.001	135.643	79.998	19.996	100.402	19.924	3.268	0.456
113.501	135.898	79.998	19.995	100.402	19.923	3.350	0.459
114.000	136.128	79.999	19.995	100.404	19.922	3.455	0.485
114.500	136.403	79.998	19.996	100.397	19.924	3.287	0.495
115.000	136.615	79.999	19.994	100.398	19.924	3.269	0.496
115.500	136.872	79.998	19.995	100.399	19.924	3.329	0.478
116.000	137.114	79.998	19.994	100.398	19.925	3.255	0.484
116.500	137.363	79.998	19.995	100.395	19.921	3.477	0.495
117.000	137.634	79.999	19.994	100.398	19.924	3.325	0.505
117.500	137.881	79.996	19.995	100.398	19.926	3.184	0.519
118.000	138.140	80.000	19.995	100.395	19.926	3.138	0.513
118.500	138.366	79.999	19.996	100.395	19.926	3.189	0.495
119.000	138.625	79.998	19.995	100.394	19.924	3.313	0.485
119.500	138.868	79.998	19.995	100.391	19.926	3.149	0.494
120.000	139.116	79.998	19.994	100.393	19.925	3.222	0.497
120.500	139.396	79.998	19.996	100.395	19.927	3.096	0.509
121.000	139.636	80.000	19.996	100.396	19.925	3.248	0.524
121.500	139.847	79.999	19.995	100.396	19.927	3.131	0.486
122.000	140.107	79.999	19.995	100.396	19.926	3.150	0.461
122.500	140.354	80.000	19.997	100.393	19.924	3.280	0.489
123.000	140.600	79.998	19.994	100.391	19.922	3.411	0.500
123.500	140.840	79.998	19.996	100.393	19.927	3.130	0.490
124.000	141.053	79.998	19.995	100.395	19.925	3.210	0.469
124.500	141.359	79.999	19.995	100.394	19.923	3.383	0.486
125.000	141.578	79.999	19.995	100.396	19.925	3.248	0.522
125.500	141.862	79.999	19.996	100.395	19.925	3.262	0.514
126.000	142.098	79.998	19.995	100.393	19.930	2.941	0.511
126.500	142.312	79.999	19.995	100.392	19.923	3.350	0.484
127.000	142.589	79.999	19.994	100.392	19.925	3.212	0.471
127.500	142.854	79.999	19.995	100.391	19.927	3.116	0.517
128.000	143.083	79.998	19.994	100.391	19.928	3.021	0.518
128.500	143.359	79.998	19.996	100.391	19.930	2.897	0.499
129.000	143.644	79.998	19.995	100.390	19.930	2.932	0.533
129.500	143.876	79.999	19.995	100.390	19.929	2.955	0.539
130.000	144.139	79.998	19.997	100.390	19.931	2.826	0.506
130.500	144.378	79.996	19.995	100.390	19.929	2.969	0.499
131.000	144.634	79.999	19.996	100.389	19.929	3.005	0.499
131.500	144.915	79.998	19.995	100.388	19.927	3.074	0.516
132.000	145.157	79.996	19.995	100.388	19.933	2.733	0.530
132.500	145.429	79.996	19.996	100.388	19.930	2.941	0.518
133.000	145.696	79.996	19.996	100.388	19.928	3.018	0.527
133.500	145.939	79.996	19.996	100.389	19.930	2.885	0.525
134.000	146.197	79.997	19.995	100.390	19.930	2.906	0.505
134.500	146.451	79.996	19.995	100.390	19.932	2.785	0.506
135.000	146.723	79.997	19.996	100.390	19.931	2.848	0.519
135.500	146.963	79.996	19.995	100.390	19.934	2.638	0.519
136.000	147.213	79.996	19.995	100.390	19.933	2.703	0.502
136.500	147.496	79.997	19.995	100.389	19.933	2.712	0.512
137.000	147.726	79.996	19.994	100.389	19.930	2.895	0.523
137.500	147.980	79.996	19.995	100.390	19.936	2.516	0.498
138.000	148.218	79.996	19.995	100.390	19.930	2.907	0.488
138.500	148.491	79.996	19.995	100.390	19.931	2.850	0.502
139.000	148.763	79.997	19.996	100.392	19.932	2.785	0.528
139.500	149.039	79.996	19.995	100.393	19.936	2.524	0.546
140.000	149.309	79.995	19.996	100.392	19.933	2.727	0.547
140.500	149.569	79.997	19.996	100.392	19.934	2.681	0.538
141.000	149.822	79.997	19.994	100.390	19.930	2.898	0.522
141.500	150.101	79.995	19.995	100.390	19.932	2.769	0.523
142.000	150.360	79.996	19.995	100.388	19.933	2.722	0.535
142.500	150.621	79.996	19.996	100.388	19.933	2.687	0.529
143.000	150.891	79.996	19.997	100.388	19.932	2.755	0.526
143.500	151.155	79.996	19.995	100.391	19.932	2.790	0.533
144.000	151.391	79.996	19.995	100.391	19.931	2.854	0.517
144.500	151.692	79.997	19.996	100.393	19.933	2.690	0.518
145.000	151.938	79.997	19.995	100.391	19.933	2.725	0.542
145.500	152.219	79.996	19.995	100.390	19.931	2.830	0.537
146.000	152.471	79.997	19.995	100.390	19.932	2.807	0.530
146.500	152.709	79.996	19.996	100.388	19.932	2.755	0.512
147.000	152.992	79.996	19.996	100.388	19.934	2.643	0.505
147.500	153.239	79.997	19.995	100.389	19.931	2.840	0.525
148.000	153.534	79.996	19.995	100.390	19.931	2.866	0.536
148.500	153.742	79.996	19.995	100.386	19.931	2.844	0.523
149.000	153.991	79.996	19.995	100.383	19.929	2.947	0.480
149.500	154.288	79.995	19.996	100.378	19.933	2.713	0.501
150.000	154.494	79.995	19.996	100.372	19.935	2.599	0.524
150.500	154.778	79.997	19.996	100.365	19.933	2.716	0.497
151.000	155.036	79.996	19.996	100.361	19.931	2.840	0.516
151.500	155.297	79.996	19.996	100.362	19.933	2.746	0.530
152.000	155.591	79.997	19.996	100.363	19.934	2.673	0.537
152.500	155.775	79.996	19.996	100.362	19.931	2.819	0.517
153.000	156.066	79.996	19.996	100.362	19.934	2.673	0.476
153.500	156.314	79.997	19.996	100.361	19.933	2.702	0.507
154.000	156.557	79.997	19.997	100.359	19.934	2.625	0.515
154.500	156.835	79.996	19.996	100.357	19.934	2.664	0.506
155.000	157.060	79.996	19.995	100.360	19.935	2.597	0.512
155.500	157.319	79.997	19.996	100.365	19.933	2.694	0.493
156.000	157.590	79.997	19.997	100.369	19.930	2.886	0.507
156.500	157.874	79.996	19.995	100.367	19.934	2.620	0.543
157.000	158.136	79.996	19.995	100.365	19.934	2.680	0.550
157.500	158.363	79.996	19.996	100.360	19.933	2.708	0.517
158.000	158.638	79.997	19.995	100.356	19.931	2.821	0.496
158.500	158.887	79.997	19.997	100.352	19.931	2.827	0.513
159.000	159.133	79.997	19.997	100.353	19.933	2.720	0.510
159.500	159.394	79.997	19.997	100.351	19.931	2.828	0.501
160.000	159.679	79.997	19.997	100.351	19.931	2.861	0.526
160.500	159.936	79.996	19.997	100.352	19.933	2.707	0.544
161.000	160.173	79.995	19.995	100.353	19.935	2.569	0.518
161.500	160.437	79.996	19.995	100.355	19.931	2.868	0.498
162.000	160.685	79.996	19.995	100.361	19.931	2.814	0.507
162.500	160.964	79.996	19.995	100.363	19.935	2.562	0.519
163.000	161.233	79.996	19.996	100.360	19.935	2.597	0.538
163.500	161.473	79.998	19.997	100.360	19.934	2.641	0.528
164.000	161.746	79.995	19.996	100.357	19.938	2.400	0.511
164.500	161.959	79.996	19.996	100.353	19.935	2.576	0.500
165.000	162.244	79.996	19.996	100.356	19.937	2.445	0.492
165.500	162.459	79.996	19.994	100.357	19.935	2.585	0.499
166.000	162.705	79.996	19.995	100.357	19.935	2.615	0.480
166.500	163.004	79.994	19.996	100.356	19.936	2.541	0.503
167.000	163.229	79.995	19.996	100.355	19.936	2.492	0.534
167.500	163.500	79.997	19.995	100.354	19.936	2.527	0.509
168.000	163.728	79.997	19.996	100.357	19.936	2.550	0.497
168.500	164.023	79.996	19.995	100.363	19.936	2.508	0.511
169.000	164.275	79.997	19.995	100.365	19.935	2.580	0.535
169.500	164.531	79.997	19.995	100.364	19.937	2.475	0.527
170.000	164.766	79.997	19.995	100.362	19.934	2.639	0.500
170.500	165.013	79.997	19.996	100.357	19.936	2.541	0.487
171.000	165.279	79.996	19.995	100.351	19.936	2.512	0.497
171.500	165.521	79.997	19.996	100.349	19.936	2.520	0.510
172.000	165.808	79.997	19.995	100.349	19.937	2.485	0.518
172.500	166.030	79.999	19.996	100.348	19.936	2.522	0.519
