Sample ID:	C:\MCC\MCC Cal\Test\Fiber_Cement_Board\Fiber_Cement_Board_30_3.txt
Sample Weight (mg):	4.56
Heating Rate (C/s):	0.5
Combustor Temp (C):	900
N2 Flow Rate (cc/min):	80
O2 Flow Rate (cc/min):	20
Calibration File:	C:\MCC\MCC Cal\Coeff1 JN10440_30_210304.txt.txt
T Correction Coefficients:	0	1.024463	0
Time Shift (s):	14
*
Time (s)	Temperature (C)	N2 flow rate (cc/min)	O2 flow rate (cc/min)	Flow Rate (cc/min)	Oxygen (%)	HRR (W/g)	Heating rate (C/s)
0.000	110.397	79.984	19.992	99.910	19.956	-0.433	0.004
0.500	110.355	79.982	19.993	99.907	19.954	-0.264	-0.001
1.000	110.366	79.985	19.992	99.905	19.955	-0.381	-0.021
1.500	110.386	79.985	19.992	99.906	19.954	-0.278	-0.000
2.001	110.354	79.986	19.993	99.913	19.952	-0.159	0.010
2.501	110.378	79.986	19.994	99.921	19.958	-0.571	-0.010
3.000	110.345	79.985	19.992	99.926	19.953	-0.206	-0.008
3.500	110.370	79.986	19.992	99.932	19.953	-0.212	-0.009
4.000	110.362	79.985	19.994	99.933	19.955	-0.330	0.005
4.500	110.377	79.985	19.992	99.930	19.956	-0.431	0.012
5.000	110.352	79.985	19.992	99.924	19.955	-0.365	-0.002
5.500	110.383	79.984	19.991	99.921	19.955	-0.356	-0.002
6.000	110.356	79.985	19.993	99.916	19.953	-0.229	0.005
6.500	110.321	79.984	19.992	99.919	19.951	-0.070	-0.029
7.000	110.330	79.984	19.991	99.924	19.952	-0.155	-0.044
7.500	110.333	79.983	19.992	99.927	19.950	-0.020	-0.007
8.000	110.341	79.983	19.993	99.932	19.952	-0.125	0.011
8.500	110.323	79.985	19.992	99.938	19.952	-0.157	0.001
9.000	110.344	79.984	19.993	99.941	19.953	-0.214	-0.003
9.501	110.361	79.985	19.993	99.944	19.947	0.183	0.020
10.001	110.336	79.985	19.992	99.952	19.947	0.205	0.015
10.500	110.335	79.984	19.991	99.955	19.948	0.105	-0.017
11.000	110.326	79.983	19.991	99.955	19.944	0.369	-0.018
11.501	110.339	79.985	19.991	99.955	19.942	0.505	-0.003
12.001	110.323	79.985	19.992	99.959	19.949	0.076	0.000
12.500	110.368	79.984	19.993	99.960	19.946	0.284	0.013
13.001	110.335	79.986	19.993	99.965	19.945	0.317	0.021
13.501	110.355	79.985	19.992	99.978	19.942	0.533	-0.001
14.001	110.381	79.985	19.993	99.991	19.945	0.362	0.016
14.501	110.394	79.984	19.992	99.996	19.945	0.334	0.042
15.000	110.401	79.985	19.992	99.999	19.943	0.469	0.029
15.500	110.403	79.984	19.993	100.003	19.944	0.421	0.015
16.000	110.425	79.983	19.992	99.999	19.939	0.736	0.017
16.500	110.434	79.984	19.992	99.999	19.942	0.505	0.027
17.000	110.425	79.984	19.992	99.997	19.941	0.623	0.015
17.500	110.442	79.985	19.992	99.997	19.938	0.832	0.004
18.000	110.444	79.984	19.992	99.994	19.940	0.662	0.013
18.500	110.456	79.984	19.991	99.995	19.939	0.714	0.017
19.000	110.476	79.983	19.992	99.993	19.933	1.178	0.023
19.500	110.473	79.984	19.993	99.997	19.931	1.272	0.025
20.000	110.553	79.984	19.991	100.005	19.936	0.933	0.047
20.500	110.577	79.985	19.991	100.015	19.931	1.294	0.091
21.000	110.560	79.984	19.991	100.029	19.937	0.902	0.056
21.500	110.611	79.984	19.991	100.040	19.932	1.200	0.020
22.000	110.625	79.984	19.991	100.049	19.931	1.283	0.050
22.500	110.620	79.984	19.992	100.057	19.931	1.282	0.037
23.000	110.696	79.984	19.991	100.057	19.935	1.047	0.040
23.500	110.668	79.985	19.992	100.052	19.933	1.158	0.059
24.000	110.714	79.986	19.992	100.050	19.933	1.180	0.033
24.500	110.777	79.986	19.992	100.046	19.931	1.302	0.064
25.000	110.777	79.986	19.992	100.047	19.929	1.411	0.086
25.500	110.808	79.986	19.991	100.052	19.932	1.247	0.047
26.000	110.868	79.986	19.992	100.058	19.929	1.391	0.061
26.500	110.888	79.986	19.994	100.058	19.930	1.345	0.086
27.000	110.929	79.986	19.993	100.060	19.934	1.100	0.070
27.500	111.017	79.985	19.992	100.058	19.930	1.345	0.095
28.000	110.999	79.987	19.992	100.050	19.930	1.354	0.099
28.500	111.052	79.985	19.991	100.043	19.934	1.063	0.052
29.000	111.112	79.985	19.991	100.038	19.934	1.107	0.074
29.500	111.171	79.986	19.991	100.032	19.933	1.185	0.116
30.000	111.201	79.985	19.991	100.025	19.932	1.198	0.104
30.500	111.233	79.986	19.992	100.018	19.932	1.227	0.076
31.000	111.287	79.986	19.991	100.017	19.934	1.070	0.075
31.500	111.360	79.985	19.991	100.015	19.934	1.100	0.107
32.000	111.377	79.986	19.992	100.013	19.929	1.392	0.108
32.500	111.406	79.986	19.991	100.010	19.929	1.405	0.068
33.000	111.463	79.987	19.992	100.013	19.935	1.035	0.066
33.500	111.519	79.986	19.992	100.014	19.934	1.083	0.100
34.000	111.541	79.986	19.992	100.015	19.930	1.347	0.096
34.500	111.583	79.986	19.991	100.017	19.932	1.214	0.071
35.000	111.642	79.985	19.991	100.021	19.934	1.117	0.082
35.500	111.708	79.987	19.992	100.028	19.933	1.176	0.113
36.000	111.754	79.985	19.991	100.036	19.928	1.493	0.118
36.500	111.820	79.986	19.992	100.043	19.926	1.652	0.112
37.001	111.876	79.986	19.992	100.049	19.926	1.650	0.117
37.501	111.911	79.985	19.992	100.060	19.928	1.505	0.107
38.000	111.969	79.987	19.992	100.067	19.925	1.667	0.092
38.500	112.050	79.985	19.991	100.068	19.926	1.662	0.116
39.000	112.127	79.986	19.991	100.072	19.923	1.828	0.148
39.500	112.140	79.986	19.991	100.077	19.925	1.699	0.124
40.001	112.254	79.985	19.991	100.082	19.921	1.957	0.108
40.501	112.306	79.985	19.991	100.087	19.917	2.245	0.147
41.000	112.372	79.987	19.991	100.093	19.922	1.905	0.142
41.500	112.399	79.986	19.991	100.098	19.919	2.114	0.105
42.000	112.471	79.985	19.992	100.102	19.921	1.944	0.096
42.500	112.558	79.985	19.992	100.101	19.918	2.171	0.129
43.000	112.627	79.986	19.992	100.102	19.920	2.051	0.158
43.500	112.724	79.984	19.991	100.104	19.918	2.196	0.162
44.001	112.758	79.985	19.992	100.105	19.921	1.995	0.149
44.501	112.839	79.985	19.991	100.106	19.920	2.015	0.123
45.001	112.957	79.987	19.991	100.110	19.920	2.067	0.157
45.501	112.995	79.987	19.992	100.110	19.917	2.235	0.177
46.001	113.077	79.986	19.991	100.110	19.916	2.294	0.138
46.500	113.151	79.987	19.991	100.112	19.917	2.241	0.138
47.001	113.229	79.986	19.991	100.117	19.913	2.497	0.154
47.501	113.320	79.985	19.991	100.122	19.914	2.473	0.160
48.000	113.407	79.986	19.991	100.124	19.916	2.342	0.174
48.500	113.525	79.987	19.992	100.129	19.912	2.582	0.192
49.000	113.591	79.987	19.992	100.133	19.912	2.586	0.194
49.500	113.706	79.987	19.991	100.133	19.913	2.507	0.182
50.001	113.780	79.986	19.992	100.133	19.916	2.322	0.185
50.501	113.901	79.987	19.991	100.135	19.916	2.340	0.192
51.001	113.987	79.986	19.992	100.129	19.915	2.386	0.201
51.501	114.106	79.988	19.992	100.123	19.915	2.410	0.206
52.001	114.230	79.986	19.993	100.119	19.913	2.521	0.224
52.501	114.284	79.987	19.993	100.117	19.914	2.468	0.211
53.001	114.368	79.988	19.993	100.112	19.915	2.374	0.158
53.501	114.476	79.987	19.992	100.117	19.914	2.466	0.165
54.001	114.582	79.988	19.992	100.118	19.915	2.361	0.203
54.500	114.680	79.987	19.992	100.113	19.915	2.378	0.209
55.000	114.811	79.987	19.992	100.108	19.916	2.295	0.217
55.501	114.888	79.988	19.992	100.107	19.917	2.276	0.218
56.001	115.024	79.987	19.992	100.102	19.915	2.365	0.211
56.500	115.168	79.987	19.992	100.102	19.912	2.594	0.247
57.000	115.269	79.988	19.992	100.102	19.919	2.142	0.263
57.500	115.342	79.987	19.991	100.106	19.916	2.346	0.209
58.000	115.457	79.987	19.993	100.112	19.918	2.166	0.181
58.501	115.611	79.986	19.992	100.116	19.916	2.308	0.229
59.001	115.739	79.988	19.993	100.119	19.916	2.335	0.275
59.500	115.840	79.987	19.993	100.122	19.915	2.387	0.255
60.001	115.944	79.987	19.991	100.117	19.914	2.420	0.218
60.501	116.064	79.988	19.993	100.111	19.917	2.245	0.215
61.001	116.179	79.986	19.993	100.107	19.916	2.302	0.229
61.501	116.299	79.986	19.992	100.107	19.915	2.367	0.235
62.001	116.423	79.986	19.992	100.103	19.913	2.489	0.239
62.500	116.504	79.986	19.993	100.103	19.912	2.587	0.225
63.000	116.647	79.985	19.992	100.104	19.912	2.607	0.215
63.500	116.812	79.985	19.992	100.107	19.912	2.577	0.266
64.000	116.935	79.985	19.993	100.109	19.915	2.367	0.298
64.500	117.046	79.985	19.993	100.112	19.912	2.559	0.261
65.000	117.149	79.985	19.992	100.119	19.913	2.531	0.224
65.500	117.297	79.986	19.991	100.121	19.913	2.507	0.232
66.001	117.412	79.986	19.992	100.124	19.915	2.384	0.257
66.501	117.555	79.985	19.992	100.126	19.915	2.417	0.260
67.000	117.699	79.985	19.991	100.131	19.913	2.518	0.273
67.500	117.842	79.985	19.994	100.132	19.914	2.456	0.287
68.000	117.982	79.986	19.993	100.135	19.910	2.749	0.285
68.500	118.112	79.984	19.992	100.134	19.907	2.923	0.277
69.000	118.244	79.986	19.992	100.131	19.909	2.812	0.266
69.500	118.382	79.987	19.991	100.130	19.913	2.548	0.266
70.000	118.485	79.985	19.992	100.131	19.912	2.567	0.256
70.500	118.630	79.985	19.992	100.132	19.910	2.724	0.244
71.001	118.775	79.986	19.993	100.134	19.913	2.537	0.269
71.501	118.916	79.985	19.992	100.138	19.911	2.656	0.288
72.000	119.047	79.985	19.991	100.138	19.910	2.720	0.279
72.500	119.196	79.985	19.992	100.138	19.913	2.493	0.276
73.000	119.360	79.986	19.993	100.139	19.910	2.750	0.296
73.500	119.465	79.985	19.992	100.140	19.912	2.589	0.291
74.001	119.628	79.985	19.992	100.140	19.910	2.704	0.269
74.501	119.778	79.986	19.992	100.140	19.912	2.565	0.291
75.000	119.915	79.986	19.992	100.141	19.906	3.036	0.300
75.500	120.072	79.986	19.993	100.140	19.904	3.108	0.290
76.001	120.193	79.985	19.993	100.142	19.907	2.909	0.286
76.501	120.361	79.984	19.992	100.141	19.908	2.889	0.284
77.001	120.518	79.984	19.992	100.141	19.902	3.249	0.307
77.501	120.686	79.985	19.992	100.143	19.907	2.909	0.325
78.001	120.809	79.986	19.993	100.144	19.910	2.719	0.307
78.501	120.999	79.985	19.993	100.143	19.908	2.900	0.302
79.000	121.148	79.984	19.992	100.145	19.904	3.138	0.327
79.500	121.321	79.985	19.993	100.146	19.906	2.981	0.331
80.000	121.471	79.987	19.993	100.147	19.899	3.515	0.322
80.500	121.630	79.985	19.993	100.152	19.904	3.156	0.316
81.000	121.785	79.985	19.992	100.155	19.909	2.782	0.312
81.500	121.958	79.985	19.993	100.158	19.903	3.179	0.321
82.000	122.098	79.985	19.993	100.164	19.904	3.123	0.320
82.501	122.298	79.985	19.993	100.168	19.907	2.933	0.326
83.001	122.476	79.984	19.992	100.169	19.907	2.943	0.359
83.501	122.600	79.985	19.992	100.173	19.906	3.015	0.340
84.000	122.801	79.985	19.993	100.175	19.905	3.103	0.313
84.500	122.981	79.986	19.993	100.176	19.904	3.111	0.353
85.001	123.117	79.986	19.993	100.176	19.905	3.088	0.348
85.501	123.284	79.986	19.994	100.176	19.909	2.780	0.310
86.000	123.463	79.987	19.992	100.176	19.903	3.203	0.325
86.500	123.639	79.985	19.992	100.174	19.904	3.107	0.351
87.001	123.815	79.984	19.993	100.173	19.907	2.953	0.353
87.501	123.993	79.985	19.993	100.172	19.907	2.918	0.353
88.000	124.162	79.984	19.992	100.174	19.905	3.099	0.351
88.500	124.324	79.985	19.994	100.175	19.901	3.338	0.339
89.000	124.519	79.985	19.992	100.178	19.906	3.007	0.344
89.500	124.707	79.984	19.993	100.178	19.903	3.240	0.369
90.000	124.872	79.984	19.992	100.178	19.897	3.635	0.368
90.501	125.033	79.986	19.993	100.178	19.907	2.922	0.339
91.001	125.218	79.984	19.994	100.179	19.906	3.016	0.336
91.501	125.402	79.985	19.992	100.178	19.902	3.258	0.358
92.001	125.603	79.985	19.993	100.179	19.901	3.356	0.377
92.500	125.806	79.984	19.993	100.182	19.899	3.473	0.394
93.000	125.967	79.984	19.994	100.185	19.899	3.473	0.384
93.500	126.165	79.986	19.994	100.188	19.903	3.208	0.361
94.000	126.347	79.983	19.991	100.189	19.901	3.328	0.370
94.500	126.540	79.984	19.992	100.190	19.902	3.286	0.378
95.000	126.754	79.985	19.992	100.188	19.901	3.354	0.391
95.500	126.926	79.986	19.992	100.185	19.901	3.364	0.396
96.000	127.115	79.985	19.991	100.182	19.901	3.338	0.373
96.500	127.340	79.985	19.992	100.182	19.905	3.073	0.388
97.000	127.519	79.984	19.991	100.182	19.897	3.653	0.409
97.500	127.765	79.985	19.992	100.181	19.900	3.395	0.415
98.001	127.913	79.984	19.992	100.180	19.901	3.330	0.410
98.501	128.137	79.985	19.991	100.179	19.907	2.931	0.383
99.000	128.323	79.984	19.992	100.179	19.897	3.628	0.391
99.500	128.535	79.986	19.992	100.179	19.902	3.273	0.403
100.000	128.747	79.983	19.990	100.180	19.906	2.981	0.411
100.501	128.944	79.985	19.992	100.181	19.904	3.118	0.417
101.001	129.180	79.985	19.993	100.183	19.901	3.321	0.422
101.500	129.356	79.986	19.994	100.183	19.901	3.317	0.422
102.000	129.570	79.985	19.993	100.183	19.901	3.352	0.401
102.500	129.715	79.987	19.993	100.183	19.909	2.819	0.374
103.000	129.976	79.986	19.992	100.184	19.905	3.086	0.382
103.500	130.170	79.983	19.992	100.184	19.898	3.543	0.431
104.000	130.384	79.985	19.991	100.184	19.903	3.241	0.432
104.500	130.547	79.987	19.992	100.184	19.902	3.269	0.392
105.001	130.798	79.984	19.993	100.184	19.901	3.332	0.396
105.501	131.013	79.984	19.992	100.184	19.900	3.437	0.440
106.000	131.243	79.986	19.992	100.183	19.898	3.581	0.456
106.500	131.390	79.985	19.991	100.182	19.898	3.541	0.411
107.000	131.627	79.987	19.991	100.180	19.899	3.461	0.381
107.500	131.871	79.986	19.992	100.179	19.901	3.376	0.432
108.001	132.034	79.985	19.992	100.179	19.902	3.289	0.444
108.501	132.278	79.987	19.992	100.179	19.904	3.151	0.407
109.000	132.474	79.986	19.992	100.180	19.902	3.284	0.424
109.500	132.741	79.985	19.991	100.182	19.896	3.657	0.452
110.000	132.918	79.988	19.991	100.181	19.899	3.500	0.454
110.500	133.107	79.987	19.992	100.181	19.902	3.297	0.405
111.000	133.326	79.986	19.991	100.181	19.902	3.273	0.387
111.501	133.535	79.987	19.993	100.180	19.902	3.280	0.418
112.001	133.781	79.986	19.991	100.180	19.900	3.443	0.441
112.500	134.029	79.988	19.992	100.181	19.900	3.395	0.474
113.000	134.252	79.987	19.991	100.181	19.902	3.297	0.482
113.500	134.424	79.988	19.992	100.180	19.900	3.428	0.433
114.000	134.645	79.987	19.992	100.180	19.898	3.543	0.394
114.500	134.883	79.988	19.992	100.180	19.896	3.687	0.426
115.000	135.083	79.988	19.991	100.176	19.900	3.423	0.449
115.500	135.316	79.987	19.992	100.176	19.892	3.951	0.436
116.000	135.565	79.986	19.992	100.176	19.897	3.592	0.457
116.500	135.731	79.988	19.992	100.175	19.897	3.631	0.448
117.000	135.960	79.987	19.993	100.175	19.896	3.683	0.405
117.500	136.209	79.985	19.991	100.179	19.892	3.988	0.437
118.000	136.433	79.987	19.992	100.177	19.893	3.906	0.476
118.500	136.647	79.985	19.993	100.177	19.898	3.568	0.455
119.001	136.882	79.986	19.992	100.176	19.900	3.380	0.443
119.501	137.076	79.987	19.992	100.174	19.893	3.877	0.439
120.000	137.325	79.987	19.992	100.174	19.898	3.578	0.435
120.500	137.529	79.987	19.992	100.175	19.899	3.472	0.448
121.000	137.753	79.987	19.991	100.175	19.899	3.498	0.441
121.500	137.996	79.987	19.993	100.175	19.903	3.180	0.448
122.000	138.203	79.986	19.992	100.176	19.895	3.727	0.459
122.500	138.432	79.986	19.992	100.176	19.900	3.385	0.443
123.000	138.668	79.986	19.993	100.176	19.895	3.744	0.451
123.500	138.925	79.985	19.990	100.176	19.894	3.853	0.479
124.000	139.118	79.986	19.992	100.177	19.893	3.903	0.471
124.500	139.342	79.986	19.991	100.178	19.900	3.441	0.433
125.000	139.563	79.987	19.994	100.178	19.897	3.625	0.430
125.501	139.798	79.987	19.992	100.179	19.896	3.686	0.450
126.001	139.994	79.987	19.992	100.179	19.901	3.378	0.444
126.500	140.274	79.987	19.993	100.180	19.900	3.439	0.454
127.000	140.482	79.988	19.993	100.180	19.897	3.653	0.482
127.501	140.741	79.987	19.992	100.180	19.893	3.875	0.477
128.000	140.950	79.987	19.991	100.180	19.899	3.469	0.468
128.500	141.165	79.986	19.991	100.179	19.897	3.631	0.446
129.000	141.415	79.986	19.991	100.178	19.900	3.382	0.444
129.500	141.620	79.987	19.992	100.178	19.897	3.644	0.460
130.000	141.857	79.986	19.990	100.176	19.899	3.492	0.449
130.500	142.081	79.989	19.991	100.176	19.901	3.346	0.452
131.000	142.278	79.989	19.991	100.177	19.901	3.368	0.441
131.500	142.565	79.986	19.991	100.177	19.898	3.542	0.452
132.000	142.786	79.988	19.992	100.175	19.899	3.498	0.496
132.500	143.049	79.987	19.991	100.176	19.896	3.692	0.496
133.000	143.290	79.987	19.992	100.175	19.896	3.659	0.494
133.500	143.526	79.985	19.991	100.175	19.905	3.101	0.491
134.000	143.760	79.989	19.991	100.175	19.893	3.916	0.473
134.500	144.032	79.989	19.991	100.176	19.897	3.587	0.488
135.000	144.227	79.988	19.991	100.177	19.894	3.819	0.487
135.500	144.447	79.990	19.992	100.174	19.894	3.821	0.441
136.000	144.706	79.987	19.992	100.172	19.894	3.806	0.447
136.500	144.963	79.989	19.993	100.167	19.897	3.623	0.497
137.000	145.218	79.989	19.991	100.166	19.896	3.692	0.514
137.500	145.432	79.987	19.990	100.165	19.896	3.699	0.491
138.000	145.665	79.987	19.990	100.168	19.898	3.551	0.458
138.500	145.920	79.987	19.992	100.170	19.900	3.380	0.468
139.000	146.154	79.988	19.992	100.176	19.901	3.345	0.489
139.500	146.381	79.988	19.990	100.176	19.892	3.952	0.475
140.000	146.614	79.987	19.993	100.174	19.894	3.799	0.460
140.500	146.864	79.989	19.993	100.167	19.901	3.319	0.471
141.000	147.113	79.989	19.991	100.163	19.902	3.306	0.491
141.500	147.345	79.988	19.993	100.160	19.898	3.579	0.490
142.000	147.599	79.988	19.991	100.161	19.897	3.622	0.483
142.500	147.821	79.986	19.993	100.164	19.899	3.472	0.481
143.000	148.093	79.986	19.992	100.171	19.898	3.538	0.485
143.500	148.353	79.984	19.992	100.175	19.898	3.555	0.513
144.000	148.611	79.985	19.992	100.178	19.898	3.518	0.525
144.500	148.834	79.986	19.993	100.178	19.898	3.520	0.500
145.000	149.102	79.985	19.993	100.177	19.898	3.572	0.486
145.500	149.335	79.985	19.993	100.176	19.900	3.435	0.496
146.000	149.546	79.983	19.992	100.175	19.904	3.142	0.472
146.500	149.803	79.985	19.993	100.173	19.901	3.334	0.456
147.000	150.029	79.986	19.992	100.168	19.897	3.592	0.475
147.500	150.310	79.986	19.994	100.164	19.901	3.319	0.495
148.000	150.539	79.984	19.993	100.164	19.898	3.543	0.508
148.500	150.785	79.985	19.993	100.164	19.900	3.443	0.492
149.000	151.025	79.983	19.992	100.166	19.898	3.551	0.481
149.500	151.274	79.984	19.992	100.171	19.901	3.332	0.487
150.000	151.500	79.987	19.992	100.173	19.897	3.600	0.482
150.500	151.723	79.985	19.992	100.174	19.895	3.784	0.462
151.000	151.963	79.985	19.992	100.174	19.901	3.369	0.456
151.500	152.253	79.986	19.992	100.172	19.904	3.134	0.497
152.000	152.511	79.985	19.992	100.167	19.898	3.566	0.539
152.500	152.710	79.988	19.994	100.164	19.899	3.493	0.503
153.000	152.972	79.986	19.993	100.166	19.905	3.088	0.459
153.500	153.210	79.982	19.992	100.167	19.899	3.465	0.480
154.000	153.463	79.984	19.993	100.167	19.898	3.550	0.495
154.500	153.669	79.985	19.992	100.170	19.904	3.160	0.475
155.000	153.931	79.986	19.993	100.171	19.899	3.455	0.464
155.500	154.226	79.986	19.993	100.168	19.901	3.374	0.513
156.000	154.413	79.984	19.992	100.168	19.899	3.455	0.519
156.500	154.697	79.984	19.992	100.170	19.897	3.601	0.476
157.000	154.916	79.987	19.994	100.173	19.897	3.619	0.487
157.500	155.153	79.987	19.992	100.178	19.899	3.464	0.479
158.000	155.431	79.986	19.993	100.179	19.896	3.699	0.486
158.500	155.676	79.984	19.992	100.179	19.899	3.460	0.520
159.000	155.938	79.986	19.992	100.178	19.901	3.324	0.515
159.500	156.152	79.986	19.992	100.175	19.907	2.960	0.491
160.000	156.435	79.983	19.992	100.171	19.901	3.376	0.486
160.500	156.681	79.983	19.992	100.172	19.895	3.734	0.513
161.000	156.896	79.983	19.991	100.173	19.899	3.516	0.495
161.500	157.149	79.984	19.992	100.173	19.898	3.562	0.465
162.000	157.403	79.986	19.992	100.176	19.901	3.357	0.488
162.500	157.645	79.984	19.992	100.179	19.898	3.564	0.501
163.000	157.909	79.986	19.993	100.176	19.899	3.464	0.501
163.500	158.184	79.984	19.991	100.175	19.902	3.303	0.523
164.000	158.448	79.984	19.991	100.175	19.900	3.425	0.539
164.500	158.683	79.986	19.993	100.171	19.904	3.124	0.519
165.000	158.917	79.986	19.994	100.170	19.899	3.484	0.484
165.500	159.169	79.986	19.993	100.173	19.904	3.154	0.477
166.000	159.446	79.986	19.993	100.168	19.901	3.349	0.508
166.500	159.688	79.986	19.993	100.166	19.902	3.288	0.524
167.000	159.921	79.985	19.994	100.167	19.903	3.239	0.497
167.500	160.186	79.985	19.993	100.165	19.900	3.447	0.486
168.000	160.426	79.984	19.992	100.160	19.898	3.538	0.501
168.500	160.697	79.986	19.992	100.158	19.897	3.604	0.508
169.000	160.984	79.984	19.992	100.157	19.896	3.698	0.534
169.500	161.185	79.985	19.993	100.155	19.900	3.405	0.523
170.000	161.408	79.982	19.992	100.155	19.904	3.115	0.456
170.500	161.683	79.984	19.993	100.157	19.902	3.277	0.461
171.000	161.945	79.984	19.992	100.159	19.900	3.382	0.518
171.500	162.210	79.983	19.993	100.158	19.902	3.253	0.532
172.000	162.425	79.985	19.993	100.158	19.906	3.015	0.504
172.500	162.684	79.985	19.993	100.156	19.901	3.375	0.477
