Sample ID:	C:\MCC\MCC Cal\Test\Polyester_Microfiber_81A_MCC_30K_min_220228_R2.txt
Sample Weight (mg):	4.24
Heating Rate (C/s):	0.5
Combustor Temp (C):	900
N2 Flow Rate (cc/min):	80
O2 Flow Rate (cc/min):	20
Calibration File:	C:\MCC\MCC Cal\Coeff1 JN10440_30_210304.txt.txt
T Correction Coefficients:	0	1.024463	0
Time Shift (s):	14
*
Time (s)	Temperature (C)	N2 flow rate (cc/min)	O2 flow rate (cc/min)	Flow Rate (cc/min)	Oxygen (%)	HRR (W/g)	Heating rate (C/s)
0.000	112.856	80.009	19.994	103.791	20.024	-0.329	0.077
0.500	112.847	80.008	19.993	103.791	20.025	-0.391	0.065
1.000	112.892	80.008	19.993	103.792	20.023	-0.229	0.040
1.500	112.936	80.008	19.994	103.795	20.025	-0.416	0.062
2.000	112.969	80.008	19.993	103.797	20.028	-0.610	0.083
2.500	113.001	80.008	19.993	103.796	20.025	-0.383	0.071
3.000	113.034	80.007	19.993	103.796	20.022	-0.148	0.065
3.500	113.023	80.008	19.993	103.797	20.022	-0.212	0.044
4.000	113.101	80.007	19.993	103.796	20.024	-0.333	0.045
4.500	113.089	80.009	19.992	103.797	20.025	-0.377	0.067
5.000	113.138	80.009	19.993	103.797	20.022	-0.150	0.052
5.500	113.165	80.007	19.992	103.797	20.024	-0.360	0.056
6.000	113.193	80.008	19.994	103.795	20.019	0.033	0.065
6.500	113.231	80.007	19.993	103.794	20.019	0.054	0.060
7.001	113.281	80.008	19.994	103.794	20.020	-0.056	0.077
7.500	113.298	80.008	19.992	103.795	20.024	-0.333	0.078
8.000	113.347	80.009	19.993	103.800	20.021	-0.096	0.066
8.500	113.339	80.009	19.994	103.803	20.024	-0.304	0.053
9.000	113.369	80.008	19.993	103.802	20.022	-0.148	0.032
9.501	113.419	80.007	19.993	103.804	20.022	-0.154	0.052
10.001	113.460	80.008	19.993	103.809	20.023	-0.219	0.086
10.500	113.444	80.007	19.992	103.812	20.020	-0.044	0.058
11.000	113.495	80.007	19.992	103.817	20.020	-0.044	0.030
11.500	113.527	80.007	19.992	103.824	20.020	-0.062	0.059
12.000	113.534	80.007	19.993	103.829	20.021	-0.121	0.060
12.500	113.565	80.006	19.993	103.831	20.019	0.085	0.038
13.000	113.605	80.007	19.993	103.832	20.017	0.185	0.054
13.500	113.620	80.008	19.993	103.832	20.017	0.167	0.063
14.000	113.682	80.007	19.992	103.832	20.017	0.223	0.066
14.500	113.703	80.007	19.993	103.833	20.016	0.265	0.080
15.000	113.741	80.007	19.994	103.832	20.017	0.169	0.071
15.500	113.733	80.007	19.994	103.832	20.016	0.260	0.045
16.000	113.809	80.008	19.994	103.833	20.018	0.123	0.049
16.500	113.845	80.008	19.993	103.833	20.015	0.323	0.090
17.000	113.829	80.008	19.993	103.832	20.019	0.060	0.066
17.500	113.896	80.009	19.993	103.833	20.016	0.263	0.036
18.000	113.926	80.008	19.992	103.832	20.015	0.363	0.074
18.500	113.949	80.007	19.993	103.832	20.011	0.654	0.075
19.000	113.941	80.008	19.993	103.836	20.015	0.390	0.034
19.500	114.016	80.007	19.993	103.841	20.014	0.413	0.041
20.000	114.014	80.008	19.994	103.842	20.014	0.415	0.070
20.500	114.065	80.006	19.993	103.846	20.013	0.488	0.061
21.000	114.097	80.007	19.994	103.849	20.011	0.640	0.066
21.500	114.130	80.009	19.993	103.851	20.012	0.582	0.074
22.000	114.164	80.008	19.992	103.853	20.013	0.490	0.066
22.500	114.230	80.009	19.992	103.859	20.012	0.596	0.083
23.000	114.280	80.010	19.992	103.864	20.012	0.617	0.108
23.500	114.305	80.008	19.994	103.868	20.014	0.452	0.096
24.001	114.328	80.009	19.993	103.870	20.011	0.640	0.062
24.501	114.357	80.008	19.993	103.871	20.008	0.884	0.050
25.000	114.430	80.009	19.992	103.871	20.007	0.940	0.077
25.500	114.486	80.008	19.992	103.871	20.009	0.784	0.116
26.001	114.498	80.010	19.993	103.873	20.007	0.955	0.099
26.500	114.481	80.009	19.993	103.880	20.006	1.082	0.031
27.000	114.561	80.010	19.992	103.887	20.005	1.117	0.028
27.500	114.607	80.009	19.993	103.894	20.005	1.107	0.094
28.000	114.618	80.009	19.992	103.901	20.006	1.040	0.091
28.500	114.683	80.009	19.993	103.908	20.005	1.117	0.067
29.000	114.785	80.011	19.992	103.913	20.005	1.136	0.122
29.500	114.806	80.012	19.993	103.916	20.004	1.226	0.145
30.000	114.851	80.010	19.993	103.925	20.000	1.491	0.094
30.500	114.922	80.009	19.993	103.934	20.000	1.522	0.091
31.000	114.981	80.010	19.993	103.940	20.001	1.422	0.123
31.500	115.006	80.010	19.991	103.945	20.002	1.364	0.107
32.000	115.055	80.010	19.994	103.950	19.998	1.678	0.079
32.500	115.094	80.009	19.995	103.952	19.994	1.939	0.081
33.000	115.166	80.009	19.995	103.953	19.996	1.834	0.099
33.500	115.254	80.010	19.993	103.954	19.994	1.965	0.135
34.000	115.278	80.009	19.993	103.956	19.996	1.809	0.136
34.500	115.364	80.010	19.993	103.962	19.995	1.909	0.111
35.000	115.456	80.008	19.993	103.961	19.990	2.290	0.144
35.500	115.521	80.009	19.993	103.961	19.991	2.178	0.168
36.000	115.581	80.008	19.993	103.962	19.992	2.084	0.141
36.500	115.674	80.009	19.992	103.960	19.991	2.224	0.139
37.000	115.711	80.009	19.992	103.953	19.991	2.164	0.142
37.501	115.811	80.010	19.992	103.952	19.989	2.374	0.133
38.001	115.865	80.011	19.993	103.950	19.988	2.426	0.145
38.501	115.918	80.009	19.992	103.947	19.991	2.179	0.131
39.000	116.041	80.010	19.992	103.949	19.989	2.315	0.142
39.500	116.118	80.008	19.992	103.954	19.989	2.365	0.188
40.000	116.186	80.009	19.993	103.960	19.988	2.417	0.173
40.500	116.284	80.009	19.994	103.968	19.989	2.369	0.156
41.000	116.339	80.010	19.993	103.976	19.985	2.653	0.159
41.500	116.479	80.010	19.991	103.980	19.984	2.699	0.174
42.000	116.528	80.010	19.993	103.983	19.982	2.893	0.192
42.501	116.646	80.009	19.993	103.984	19.984	2.755	0.178
43.001	116.743	80.009	19.994	103.970	19.984	2.734	0.191
43.500	116.807	80.009	19.993	103.946	19.986	2.542	0.188
44.000	116.881	80.008	19.995	103.932	19.985	2.649	0.149
44.500	117.034	80.009	19.993	103.927	19.985	2.676	0.182
45.000	117.129	80.010	19.993	103.926	19.984	2.705	0.237
45.500	117.243	80.010	19.993	103.941	19.986	2.586	0.228
46.000	117.340	80.010	19.993	103.975	19.984	2.699	0.210
46.500	117.414	80.008	19.993	104.024	19.987	2.482	0.191
47.000	117.538	80.008	19.992	104.041	19.981	2.929	0.184
47.500	117.632	80.011	19.993	104.042	19.983	2.805	0.207
48.000	117.747	80.008	19.995	104.042	19.983	2.822	0.213
48.500	117.858	80.011	19.994	104.033	19.984	2.728	0.218
49.001	117.965	80.009	19.994	103.998	19.985	2.626	0.222
49.501	118.112	80.009	19.995	103.987	19.985	2.620	0.236
50.001	118.204	80.011	19.993	103.986	19.989	2.351	0.247
50.501	118.303	80.009	19.993	103.986	19.988	2.438	0.215
51.001	118.428	80.010	19.993	103.986	19.986	2.570	0.207
51.501	118.540	80.009	19.994	103.986	19.985	2.637	0.231
52.000	118.662	80.010	19.996	103.986	19.984	2.753	0.236
52.501	118.780	80.011	19.995	103.991	19.985	2.659	0.237
53.001	118.919	80.011	19.995	103.994	19.982	2.879	0.249
53.500	119.018	80.011	19.993	103.995	19.985	2.641	0.247
54.000	119.153	80.011	19.993	103.995	19.981	2.954	0.236
54.500	119.271	80.010	19.994	103.996	19.984	2.696	0.243
55.000	119.408	80.011	19.993	103.992	19.980	3.039	0.254
55.500	119.526	80.010	19.994	103.988	19.982	2.867	0.255
56.000	119.658	80.010	19.993	103.987	19.983	2.778	0.253
56.500	119.781	80.012	19.993	103.992	19.984	2.749	0.252
57.000	119.952	80.011	19.992	103.995	19.981	2.971	0.274
57.500	120.096	80.013	19.993	104.001	19.980	3.025	0.305
58.000	120.219	80.011	19.993	104.008	19.980	3.021	0.291
58.500	120.333	80.010	19.993	104.009	19.983	2.787	0.252
59.000	120.464	80.010	19.994	104.011	19.982	2.860	0.241
59.500	120.629	80.010	19.993	104.013	19.981	2.958	0.271
60.000	120.751	80.010	19.993	104.015	19.984	2.691	0.291
60.500	120.904	80.011	19.993	104.013	19.984	2.704	0.280
61.000	121.059	80.009	19.994	104.015	19.983	2.793	0.291
61.500	121.207	80.009	19.993	104.012	19.982	2.896	0.306
62.000	121.363	80.010	19.993	104.007	19.983	2.841	0.304
62.500	121.481	80.010	19.993	104.011	19.982	2.889	0.289
63.000	121.650	80.009	19.994	104.004	19.981	2.994	0.281
63.500	121.786	80.009	19.993	103.974	19.982	2.871	0.296
64.000	121.961	80.009	19.994	103.953	19.981	2.977	0.308
64.500	122.144	80.009	19.992	103.944	19.980	3.062	0.334
65.001	122.276	80.009	19.994	103.934	19.980	3.050	0.337
65.501	122.445	80.009	19.993	103.967	19.978	3.202	0.308
66.000	122.623	80.010	19.994	104.021	19.980	3.015	0.324
66.500	122.758	80.009	19.993	104.054	19.977	3.280	0.330
67.000	122.946	80.010	19.994	104.068	19.978	3.209	0.318
67.500	123.068	80.009	19.993	104.075	19.977	3.286	0.316
68.000	123.190	80.008	19.993	104.051	19.978	3.163	0.277
68.501	123.358	80.007	19.994	104.028	19.978	3.219	0.267
69.001	123.553	80.008	19.993	104.020	19.979	3.119	0.327
69.500	123.721	80.008	19.993	104.020	19.982	2.896	0.363
70.000	123.907	80.008	19.993	104.020	19.977	3.261	0.358
70.500	124.016	80.008	19.994	104.021	19.978	3.194	0.324
71.000	124.212	80.008	19.993	104.023	19.978	3.198	0.300
71.500	124.392	80.009	19.994	104.024	19.976	3.363	0.340
72.000	124.569	80.006	19.994	104.023	19.977	3.250	0.367
72.500	124.739	80.008	19.993	104.022	19.975	3.401	0.352
73.000	124.928	80.007	19.994	104.023	19.978	3.213	0.353
73.500	125.102	80.008	19.994	104.022	19.977	3.282	0.361
74.000	125.290	80.008	19.993	104.022	19.972	3.611	0.363
74.500	125.465	80.008	19.993	104.023	19.979	3.138	0.363
75.000	125.648	80.007	19.994	104.024	19.973	3.540	0.360
75.500	125.822	80.008	19.994	104.024	19.975	3.417	0.358
76.000	126.029	80.008	19.994	104.024	19.976	3.361	0.369
76.500	126.187	80.008	19.994	104.024	19.972	3.622	0.373
77.000	126.347	80.008	19.994	104.024	19.974	3.530	0.342
77.500	126.528	80.008	19.994	104.026	19.977	3.269	0.330
78.000	126.722	80.009	19.993	104.028	19.976	3.340	0.358
78.500	126.898	80.007	19.993	104.027	19.977	3.248	0.373
79.000	127.080	80.008	19.995	104.026	19.974	3.486	0.364
79.501	127.258	80.007	19.995	104.026	19.973	3.582	0.359
80.001	127.463	80.007	19.994	104.027	19.972	3.634	0.372
80.501	127.630	80.007	19.994	104.027	19.975	3.430	0.378
81.000	127.825	80.007	19.995	104.028	19.977	3.280	0.367
81.500	128.044	80.007	19.995	104.028	19.972	3.626	0.388
82.001	128.196	80.007	19.994	104.028	19.975	3.382	0.392
82.501	128.383	80.007	19.996	104.027	19.974	3.503	0.355
83.000	128.549	80.008	19.994	104.026	19.973	3.574	0.346
83.500	128.786	80.008	19.994	104.026	19.972	3.657	0.378
84.000	129.014	80.006	19.995	104.026	19.975	3.455	0.434
84.501	129.172	80.007	19.995	104.025	19.972	3.628	0.426
85.001	129.323	80.006	19.995	104.025	19.976	3.363	0.347
85.500	129.537	80.007	19.994	104.027	19.972	3.624	0.337
86.000	129.762	80.008	19.995	104.029	19.976	3.326	0.402
86.500	129.972	80.007	19.994	104.029	19.973	3.570	0.437
87.000	130.149	80.008	19.994	104.029	19.972	3.622	0.411
87.500	130.386	80.008	19.994	104.032	19.971	3.695	0.401
88.000	130.562	80.007	19.993	104.031	19.971	3.701	0.413
88.500	130.789	80.009	19.993	104.030	19.973	3.597	0.408
89.000	130.958	80.006	19.994	104.031	19.970	3.837	0.400
89.500	131.180	80.008	19.994	104.031	19.971	3.714	0.393
90.000	131.375	80.007	19.994	104.030	19.971	3.708	0.404
90.500	131.595	80.007	19.994	104.032	19.968	3.945	0.416
91.000	131.782	80.007	19.994	104.033	19.974	3.497	0.411
91.501	132.019	80.008	19.992	104.033	19.971	3.710	0.416
92.001	132.200	80.008	19.993	104.033	19.973	3.593	0.421
92.500	132.416	80.008	19.993	104.032	19.972	3.624	0.408
93.000	132.643	80.009	19.992	104.031	19.972	3.674	0.420
93.500	132.860	80.008	19.992	104.032	19.972	3.638	0.443
94.001	133.092	80.007	19.993	104.035	19.970	3.799	0.446
94.501	133.292	80.008	19.992	104.035	19.971	3.743	0.441
95.000	133.498	80.008	19.993	104.036	19.972	3.674	0.419
95.500	133.750	80.007	19.993	104.036	19.973	3.580	0.432
96.000	133.966	80.006	19.993	104.033	19.972	3.617	0.463
96.500	134.187	80.008	19.994	104.031	19.969	3.851	0.452
97.000	134.412	80.006	19.992	104.031	19.970	3.763	0.441
97.500	134.624	80.007	19.994	104.031	19.973	3.603	0.442
98.001	134.833	80.007	19.993	104.029	19.968	3.991	0.429
98.501	135.044	80.007	19.994	104.029	19.969	3.893	0.421
99.001	135.263	80.009	19.993	104.029	19.968	3.953	0.425
99.501	135.497	80.008	19.994	104.029	19.970	3.811	0.441
100.001	135.705	80.009	19.993	104.032	19.968	3.982	0.447
100.500	135.924	80.009	19.993	104.035	19.968	3.922	0.435
101.001	136.175	80.009	19.993	104.036	19.970	3.786	0.448
101.501	136.385	80.008	19.993	104.037	19.968	3.932	0.465
102.000	136.595	80.009	19.993	104.037	19.969	3.914	0.441
102.500	136.816	80.008	19.993	104.034	19.967	4.018	0.426
103.000	137.077	80.007	19.993	104.031	19.970	3.795	0.457
103.500	137.293	80.007	19.993	104.029	19.971	3.736	0.479
104.001	137.509	80.010	19.993	104.028	19.969	3.912	0.454
104.501	137.732	80.007	19.994	104.025	19.967	3.997	0.435
105.001	137.968	80.008	19.992	104.025	19.968	3.922	0.449
105.500	138.213	80.010	19.993	104.025	19.969	3.914	0.470
106.000	138.444	80.010	19.993	104.025	19.967	3.997	0.479
106.500	138.697	80.010	19.993	104.024	19.969	3.889	0.481
107.001	138.917	80.009	19.993	104.024	19.967	4.028	0.479
107.501	139.169	80.011	19.993	104.023	19.968	3.941	0.473
108.000	139.384	80.009	19.994	104.023	19.970	3.809	0.470
108.500	139.609	80.010	19.993	104.024	19.969	3.905	0.453
109.000	139.856	80.010	19.993	104.024	19.969	3.845	0.456
109.500	140.069	80.009	19.993	104.024	19.969	3.878	0.466
110.000	140.301	80.009	19.993	104.024	19.970	3.834	0.452
110.500	140.534	80.009	19.993	104.024	19.966	4.070	0.455
111.000	140.775	80.010	19.992	104.024	19.969	3.841	0.470
111.501	141.022	80.010	19.992	104.023	19.972	3.611	0.482
112.001	141.249	80.009	19.995	104.024	19.968	3.991	0.481
112.500	141.489	80.010	19.994	104.025	19.968	3.924	0.470
113.000	141.734	80.009	19.993	104.026	19.969	3.911	0.476
113.500	141.950	80.009	19.993	104.026	19.970	3.813	0.473
114.001	142.210	80.008	19.995	104.026	19.967	3.997	0.468
114.501	142.458	80.011	19.993	104.026	19.967	3.999	0.492
115.000	142.675	80.011	19.993	104.024	19.965	4.218	0.486
115.500	142.895	80.011	19.992	104.023	19.965	4.180	0.451
116.000	143.137	80.009	19.992	104.022	19.962	4.418	0.450
116.500	143.420	80.010	19.993	104.022	19.965	4.201	0.494
117.000	143.654	80.010	19.992	104.022	19.964	4.237	0.521
117.500	143.940	80.010	19.992	104.022	19.968	3.928	0.518
118.000	144.168	80.008	19.994	104.022	19.967	4.022	0.517
118.500	144.411	80.010	19.992	104.022	19.966	4.085	0.492
119.000	144.620	80.010	19.992	104.023	19.968	3.932	0.462
119.500	144.915	80.010	19.992	104.022	19.968	3.968	0.478
120.000	145.143	80.011	19.993	104.023	19.966	4.082	0.513
120.500	145.392	80.010	19.992	104.023	19.965	4.216	0.500
121.000	145.636	80.010	19.993	104.023	19.972	3.667	0.485
121.500	145.863	80.011	19.993	104.024	19.969	3.863	0.482
122.001	146.121	80.009	19.992	104.025	19.969	3.884	0.478
122.501	146.385	80.010	19.993	104.025	19.969	3.886	0.503
123.000	146.645	80.009	19.992	104.023	19.968	3.940	0.523
123.500	146.868	80.009	19.995	104.022	19.969	3.900	0.504
124.000	147.133	80.009	19.994	104.021	19.970	3.823	0.486
124.500	147.341	80.010	19.993	104.020	19.967	4.011	0.481
125.000	147.616	80.010	19.993	104.019	19.968	3.979	0.478
125.500	147.861	80.009	19.992	104.020	19.967	4.009	0.501
126.000	148.081	80.009	19.994	104.019	19.967	4.050	0.492
126.500	148.360	80.010	19.993	104.016	19.966	4.128	0.482
127.001	148.605	80.011	19.993	104.017	19.970	3.771	0.512
127.501	148.870	80.009	19.993	104.018	19.970	3.800	0.517
128.000	149.113	80.010	19.992	104.018	19.969	3.871	0.509
128.500	149.356	80.012	19.994	104.019	19.972	3.629	0.497
129.000	149.562	80.010	19.993	104.021	19.968	3.975	0.467
129.500	149.826	80.010	19.994	104.021	19.970	3.810	0.459
130.000	150.068	80.010	19.993	104.021	19.973	3.587	0.488
130.500	150.328	80.009	19.993	104.020	19.973	3.575	0.504
131.000	150.588	80.009	19.995	104.019	19.972	3.619	0.511
131.500	150.853	80.011	19.992	104.019	19.968	3.969	0.522
132.000	151.076	80.011	19.992	104.018	19.967	4.004	0.507
132.500	151.344	80.010	19.993	104.018	19.970	3.777	0.489
133.000	151.574	80.010	19.992	104.016	19.971	3.750	0.495
133.500	151.859	80.012	19.993	104.012	19.971	3.760	0.507
134.000	152.109	80.011	19.992	104.009	19.969	3.850	0.525
134.500	152.365	80.012	19.993	104.003	19.971	3.716	0.520
135.000	152.611	80.011	19.992	103.998	19.969	3.885	0.504
135.500	152.863	80.012	19.993	103.996	19.970	3.810	0.500
136.000	153.148	80.011	19.992	103.996	19.970	3.837	0.517
136.500	153.370	80.012	19.993	103.997	19.970	3.794	0.522
137.000	153.617	80.011	19.993	103.999	19.969	3.902	0.488
137.500	153.883	80.011	19.994	104.001	19.970	3.821	0.491
138.000	154.097	80.012	19.993	104.001	19.970	3.785	0.496
138.500	154.402	80.011	19.993	104.000	19.970	3.764	0.500
139.000	154.620	80.011	19.992	103.999	19.969	3.864	0.521
139.500	154.846	80.010	19.992	103.997	19.971	3.752	0.484
140.000	155.093	80.011	19.993	103.995	19.971	3.685	0.459
140.500	155.343	80.011	19.993	103.997	19.970	3.795	0.485
141.000	155.618	80.011	19.992	103.997	19.969	3.877	0.511
141.500	155.871	80.011	19.992	103.996	19.970	3.812	0.526
142.000	156.127	80.010	19.992	104.000	19.976	3.314	0.518
142.500	156.375	80.011	19.993	104.000	19.973	3.579	0.507
143.000	156.652	80.010	19.993	103.998	19.972	3.654	0.514
143.500	156.908	80.009	19.993	103.998	19.969	3.850	0.529
144.000	157.206	80.010	19.993	103.995	19.967	4.044	0.544
144.500	157.417	80.009	19.993	103.991	19.970	3.802	0.532
145.000	157.666	80.009	19.993	103.994	19.972	3.620	0.484
145.500	157.913	80.009	19.992	103.994	19.972	3.679	0.478
146.000	158.189	80.008	19.994	103.993	19.972	3.664	0.510
146.500	158.428	80.009	19.994	103.994	19.971	3.722	0.519
147.000	158.665	80.008	19.995	103.993	19.970	3.791	0.496
147.500	158.927	80.008	19.995	103.991	19.974	3.499	0.488
148.000	159.185	80.007	19.994	103.990	19.971	3.714	0.509
148.500	159.423	80.008	19.993	103.991	19.970	3.783	0.507
149.000	159.716	80.008	19.994	103.990	19.971	3.756	0.514
149.500	159.940	80.007	19.995	103.990	19.971	3.731	0.524
150.000	160.190	80.008	19.995	103.989	19.972	3.635	0.495
150.500	160.438	80.007	19.994	103.989	19.969	3.852	0.486
151.000	160.735	80.006	19.994	103.987	19.969	3.896	0.522
151.500	160.919	80.008	19.994	103.987	19.970	3.837	0.513
152.000	161.163	80.007	19.993	103.986	19.970	3.808	0.454
152.500	161.477	80.008	19.994	103.987	19.971	3.758	0.493
153.000	161.740	80.008	19.993	103.988	19.971	3.695	0.568
153.500	161.978	80.008	19.994	103.988	19.969	3.881	0.539
154.000	162.213	80.008	19.994	103.988	19.967	4.025	0.487
154.500	162.481	80.008	19.993	103.988	19.969	3.912	0.488
155.000	162.740	80.009	19.994	103.987	19.965	4.154	0.514
155.500	163.009	80.008	19.994	103.985	19.968	3.947	0.527
156.000	163.226	80.007	19.993	103.984	19.968	3.979	0.507
156.500	163.502	80.008	19.994	103.983	19.969	3.891	0.490
157.000	163.763	80.008	19.993	103.983	19.970	3.837	0.515
157.500	164.022	80.009	19.994	103.982	19.967	4.008	0.528
158.000	164.245	80.006	19.994	103.983	19.969	3.887	0.501
158.500	164.545	80.008	19.993	103.985	19.968	3.970	0.502
159.000	164.793	80.008	19.993	103.986	19.969	3.893	0.536
159.500	165.042	80.008	19.992	103.987	19.972	3.645	0.523
160.000	165.279	80.008	19.993	103.989	19.970	3.816	0.492
160.500	165.562	80.008	19.993	103.989	19.970	3.827	0.503
161.000	165.778	80.009	19.993	103.990	19.970	3.833	0.509
161.500	166.050	80.009	19.992	103.990	19.970	3.810	0.494
162.000	166.305	80.008	19.993	103.988	19.971	3.693	0.508
162.500	166.564	80.009	19.993	103.985	19.971	3.714	0.521
163.000	166.833	80.008	19.992	103.984	19.972	3.676	0.521
163.500	167.073	80.009	19.993	103.985	19.971	3.693	0.518
164.000	167.334	80.009	19.993	103.984	19.971	3.716	0.505
164.500	167.546	80.007	19.994	103.985	19.970	3.809	0.487
165.000	167.801	80.009	19.993	103.985	19.971	3.724	0.470
165.500	168.055	80.008	19.993	103.983	19.975	3.419	0.488
166.000	168.309	80.008	19.993	103.982	19.975	3.432	0.508
166.500	168.584	80.008	19.993	103.981	19.973	3.532	0.518
167.000	168.824	80.009	19.993	103.981	19.973	3.534	0.522
167.501	169.075	80.010	19.993	103.981	19.972	3.655	0.503
168.000	169.306	80.008	19.993	103.981	19.974	3.463	0.486
168.500	169.570	80.008	19.993	103.981	19.974	3.476	0.489
169.000	169.812	80.008	19.993	103.982	19.975	3.448	0.501
169.500	170.092	80.009	19.993	103.982	19.974	3.482	0.514
170.000	170.314	80.008	19.995	103.984	19.974	3.509	0.512
170.500	170.573	80.008	19.994	103.983	19.975	3.415	0.491
171.000	170.769	80.008	19.995	103.983	19.973	3.597	0.468
171.500	171.096	80.006	19.993	103.982	19.972	3.653	0.489
172.000	171.312	80.008	19.998	103.982	19.971	3.713	0.533
172.500	171.591	80.006	19.995	103.982	19.973	3.574	0.520
