Sample ID:	C:\MCC\PVC_MCC_30K_min_210920_R1.txt
Sample Weight (mg):	4.51
Heating Rate (C/s):	0.5
Combustor Temp (C):	900
N2 Flow Rate (cc/min):	80
O2 Flow Rate (cc/min):	20
Calibration File:	C:\MCC\MCC Cal\Coeff1 JN10440_30_210304.txt.txt
T Correction Coefficients:	0	1.024463	0
Time Shift (s):	14
*
Time (s)	Temperature (C)	N2 flow rate (cc/min)	O2 flow rate (cc/min)	Flow Rate (cc/min)	Oxygen (%)	HRR (W/g)	Heating rate (C/s)
0.000	107.299	79.995	19.995	100.111	20.303	0.066	-0.009
0.500	107.320	79.997	19.996	100.111	20.302	0.159	0.003
1.000	107.316	79.996	19.995	100.110	20.302	0.155	0.015
1.501	107.319	79.996	19.996	100.111	20.302	0.134	0.008
2.001	107.280	79.996	19.996	100.111	20.300	0.283	-0.018
2.501	107.342	79.997	19.996	100.111	20.303	0.057	-0.006
3.001	107.306	79.996	19.996	100.111	20.306	-0.115	0.025
3.500	107.281	79.998	19.997	100.111	20.303	0.077	-0.018
4.000	107.314	79.996	19.996	100.111	20.305	-0.057	-0.027
4.500	107.287	79.997	19.996	100.111	20.301	0.195	0.007
5.000	107.301	79.996	19.996	100.111	20.301	0.181	-0.003
5.501	107.288	79.997	19.996	100.111	20.299	0.306	-0.006
6.001	107.307	79.996	19.995	100.110	20.300	0.282	0.003
6.500	107.270	79.997	19.996	100.107	20.302	0.115	-0.006
7.000	107.275	79.997	19.994	100.107	20.300	0.259	-0.025
7.500	107.317	79.996	19.997	100.106	20.301	0.174	0.007
8.000	107.329	79.998	19.996	100.106	20.299	0.370	0.051
8.500	107.315	79.996	19.995	100.108	20.303	0.064	0.026
9.000	107.275	79.997	19.996	100.111	20.303	0.077	-0.028
9.500	107.322	79.995	19.995	100.112	20.300	0.265	-0.024
10.000	107.306	79.997	19.995	100.113	20.301	0.227	0.019
10.500	107.263	79.997	19.995	100.115	20.302	0.147	-0.014
11.000	107.306	79.996	19.996	100.120	20.303	0.070	-0.029
11.500	107.287	79.998	19.994	100.124	20.301	0.172	0.012
12.000	107.288	79.998	19.995	100.124	20.298	0.386	0.003
12.501	107.257	79.997	19.994	100.126	20.298	0.397	-0.024
13.001	107.326	79.998	19.994	100.129	20.299	0.334	0.004
13.500	107.301	79.997	19.995	100.124	20.299	0.365	0.041
14.000	107.288	79.998	19.993	100.126	20.297	0.474	0.003
14.500	107.252	79.997	19.995	100.132	20.297	0.455	-0.043
15.000	107.298	79.996	19.994	100.138	20.296	0.561	-0.020
15.500	107.330	79.997	19.994	100.141	20.297	0.467	0.044
16.000	107.298	79.997	19.995	100.147	20.291	0.871	0.039
16.500	107.295	79.997	19.994	100.153	20.295	0.624	-0.017
17.000	107.346	79.997	19.995	100.158	20.293	0.750	0.006
17.500	107.337	79.997	19.994	100.160	20.294	0.688	0.045
18.000	107.340	79.997	19.994	100.161	20.293	0.777	0.019
18.500	107.341	79.996	19.995	100.162	20.290	0.983	-0.001
19.000	107.365	79.996	19.995	100.166	20.293	0.748	0.014
19.500	107.357	79.996	19.994	100.167	20.294	0.671	0.020
20.000	107.354	79.996	19.996	100.169	20.295	0.592	0.003
20.500	107.422	79.998	19.994	100.175	20.291	0.903	0.027
21.000	107.419	79.998	19.995	100.181	20.292	0.809	0.065
21.500	107.419	79.998	19.995	100.183	20.295	0.605	0.031
22.000	107.410	79.997	19.993	100.181	20.293	0.752	-0.006
22.500	107.461	79.997	19.994	100.179	20.291	0.926	0.017
23.000	107.485	79.998	19.993	100.177	20.290	0.958	0.058
23.500	107.506	79.998	19.994	100.176	20.291	0.877	0.060
24.001	107.497	79.997	19.995	100.176	20.290	0.995	0.029
24.502	107.531	79.996	19.995	100.178	20.292	0.839	0.019
25.001	107.594	79.997	19.994	100.184	20.292	0.802	0.062
25.501	107.580	79.997	19.994	100.188	20.291	0.890	0.073
26.001	107.596	79.996	19.996	100.189	20.291	0.870	0.025
26.501	107.599	79.997	19.994	100.190	20.293	0.768	0.010
27.000	107.624	79.997	19.995	100.191	20.293	0.773	0.023
27.500	107.634	79.997	19.996	100.191	20.290	0.932	0.032
28.000	107.633	79.997	19.995	100.189	20.291	0.870	0.022
28.500	107.664	79.998	19.996	100.186	20.290	0.932	0.019
29.000	107.675	79.998	19.994	100.185	20.292	0.855	0.036
29.500	107.696	79.997	19.996	100.184	20.288	1.121	0.037
30.000	107.752	79.997	19.995	100.184	20.287	1.142	0.054
30.500	107.761	79.997	19.995	100.186	20.287	1.204	0.071
31.001	107.808	79.997	19.995	100.191	20.285	1.306	0.061
31.501	107.834	79.998	19.995	100.192	20.284	1.357	0.065
32.000	107.849	79.998	19.994	100.193	20.285	1.306	0.057
32.500	107.867	79.997	19.994	100.194	20.288	1.066	0.037
33.000	107.926	79.998	19.996	100.199	20.288	1.089	0.055
33.500	107.934	79.998	19.994	100.206	20.289	1.047	0.072
34.000	107.968	79.998	19.995	100.213	20.286	1.210	0.054
34.500	108.004	79.998	19.994	100.220	20.287	1.168	0.056
35.000	108.050	80.000	19.994	100.224	20.285	1.287	0.076
35.501	108.103	79.998	19.994	100.219	20.287	1.187	0.090
36.001	108.111	79.998	19.994	100.216	20.286	1.259	0.080
36.500	108.137	79.999	19.995	100.216	20.287	1.168	0.048
37.000	108.218	79.998	19.994	100.217	20.283	1.425	0.071
37.500	108.225	79.999	19.994	100.220	20.284	1.393	0.098
38.000	108.278	79.999	19.995	100.227	20.284	1.346	0.074
38.500	108.362	79.999	19.994	100.230	20.283	1.446	0.098
39.000	108.365	79.999	19.995	100.228	20.286	1.259	0.112
39.500	108.404	79.999	19.995	100.225	20.284	1.387	0.065
40.000	108.460	79.999	19.995	100.222	20.281	1.616	0.068
40.500	108.497	79.999	19.995	100.217	20.287	1.140	0.094
41.000	108.557	79.998	19.995	100.214	20.284	1.350	0.096
41.500	108.595	79.998	19.993	100.209	20.291	0.926	0.097
42.000	108.627	79.998	19.994	100.203	20.283	1.433	0.084
42.500	108.705	79.998	19.994	100.202	20.288	1.099	0.090
43.000	108.763	79.998	19.994	100.199	20.285	1.307	0.123
43.500	108.778	79.997	19.994	100.195	20.288	1.131	0.105
44.000	108.835	79.998	19.995	100.195	20.287	1.169	0.072
44.500	108.839	79.997	19.994	100.195	20.289	1.052	0.066
45.000	108.941	79.998	19.994	100.198	20.288	1.122	0.083
45.500	108.988	79.996	19.995	100.198	20.290	0.953	0.127
46.000	109.028	79.999	19.995	100.195	20.290	0.946	0.118
46.500	109.104	79.997	19.994	100.194	20.290	0.934	0.102
47.000	109.133	79.999	19.994	100.194	20.287	1.167	0.111
47.500	109.197	79.997	19.995	100.186	20.288	1.071	0.099
48.000	109.270	79.997	19.995	100.180	20.289	0.999	0.114
48.500	109.299	79.998	19.994	100.182	20.288	1.133	0.119
49.000	109.360	79.999	19.995	100.183	20.286	1.224	0.096
49.500	109.403	79.997	19.994	100.183	20.289	1.043	0.097
50.000	109.395	79.998	19.994	100.189	20.287	1.190	0.069
50.500	109.497	79.999	19.993	100.199	20.283	1.427	0.064
51.000	109.531	79.998	19.993	100.207	20.287	1.147	0.115
51.500	109.580	79.998	19.993	100.214	20.285	1.285	0.110
52.000	109.609	79.999	19.993	100.222	20.286	1.243	0.081
52.500	109.700	79.998	19.994	100.229	20.285	1.291	0.099
53.000	109.759	79.999	19.994	100.235	20.284	1.406	0.134
53.500	109.825	79.998	19.994	100.240	20.283	1.415	0.137
54.000	109.874	79.999	19.994	100.248	20.282	1.518	0.120
54.500	109.926	79.999	19.994	100.256	20.281	1.614	0.108
55.000	109.988	79.999	19.993	100.263	20.283	1.444	0.108
55.500	110.040	79.999	19.994	100.269	20.281	1.599	0.115
56.000	110.107	79.999	19.994	100.272	20.283	1.478	0.116
56.500	110.177	80.000	19.994	100.272	20.279	1.719	0.127
57.000	110.206	79.998	19.994	100.271	20.276	1.929	0.118
57.500	110.324	79.999	19.994	100.272	20.273	2.147	0.123
58.000	110.370	80.000	19.995	100.273	20.274	2.052	0.155
58.500	110.424	80.000	19.993	100.274	20.274	2.099	0.132
59.000	110.521	80.000	19.993	100.280	20.274	2.092	0.126
59.500	110.604	80.001	19.994	100.284	20.272	2.222	0.166
60.001	110.669	80.000	19.993	100.292	20.275	1.991	0.164
60.501	110.739	80.001	19.994	100.297	20.272	2.194	0.141
61.000	110.811	79.998	19.995	100.302	20.273	2.135	0.139
61.500	110.861	79.998	19.993	100.303	20.269	2.415	0.132
62.000	110.979	80.000	19.994	100.306	20.271	2.272	0.145
62.500	111.036	79.999	19.995	100.306	20.268	2.491	0.171
63.000	111.093	80.000	19.994	100.306	20.267	2.525	0.144
63.500	111.222	80.000	19.995	100.307	20.267	2.529	0.150
64.001	111.273	79.998	19.994	100.307	20.266	2.603	0.183
64.501	111.393	79.999	19.994	100.306	20.264	2.766	0.176
65.000	111.482	79.999	19.995	100.305	20.265	2.698	0.190
65.500	111.542	79.999	19.995	100.310	20.263	2.853	0.179
66.000	111.633	79.998	19.994	100.313	20.264	2.766	0.150
66.500	111.757	79.999	19.994	100.318	20.264	2.778	0.183
67.000	111.849	79.998	19.996	100.327	20.262	2.933	0.216
67.500	111.975	79.998	19.995	100.335	20.260	3.032	0.217
68.000	112.022	79.997	19.995	100.337	20.259	3.094	0.195
68.500	112.177	79.997	19.995	100.341	20.258	3.150	0.188
69.000	112.264	79.998	19.995	100.343	20.260	3.073	0.222
69.500	112.361	79.999	19.995	100.344	20.259	3.095	0.213
70.000	112.468	79.997	19.996	100.344	20.258	3.207	0.194
70.500	112.529	79.997	19.994	100.345	20.261	2.942	0.186
71.000	112.695	79.997	19.994	100.346	20.260	3.029	0.198
71.500	112.792	79.996	19.995	100.347	20.256	3.341	0.245
72.000	112.932	79.997	19.995	100.347	20.259	3.084	0.250
72.500	113.019	79.997	19.994	100.344	20.260	3.050	0.232
73.000	113.138	79.997	19.994	100.343	20.259	3.107	0.217
73.501	113.288	79.997	19.995	100.342	20.256	3.294	0.237
74.001	113.378	79.996	19.994	100.342	20.260	3.067	0.254
74.500	113.471	79.998	19.994	100.343	20.256	3.302	0.211
75.001	113.633	79.997	19.993	100.346	20.258	3.194	0.219
75.501	113.739	79.997	19.995	100.347	20.253	3.525	0.261
76.000	113.871	79.996	19.994	100.351	20.257	3.266	0.253
76.500	114.010	79.997	19.995	100.357	20.254	3.454	0.254
77.000	114.160	79.996	19.995	100.364	20.255	3.412	0.280
77.501	114.281	79.997	19.994	100.370	20.255	3.363	0.281
78.001	114.415	79.997	19.994	100.376	20.255	3.406	0.263
78.500	114.545	79.998	19.995	100.375	20.256	3.349	0.259
79.000	114.696	79.998	19.994	100.370	20.252	3.573	0.272
79.500	114.774	79.998	19.996	100.363	20.256	3.292	0.255
80.000	114.976	79.998	19.995	100.358	20.255	3.368	0.254
80.500	115.103	79.998	19.995	100.353	20.258	3.179	0.304
81.001	115.249	79.999	19.995	100.350	20.257	3.249	0.301
81.501	115.395	79.998	19.994	100.349	20.254	3.480	0.283
82.000	115.528	79.998	19.994	100.349	20.256	3.346	0.285
82.500	115.650	79.997	19.994	100.348	20.258	3.188	0.267
83.000	115.807	79.999	19.994	100.347	20.254	3.484	0.267
83.500	115.975	79.998	19.995	100.349	20.256	3.336	0.302
84.000	116.146	79.995	19.995	100.352	20.255	3.426	0.332
84.500	116.251	79.998	19.994	100.356	20.255	3.371	0.307
85.000	116.420	79.997	19.995	100.359	20.255	3.399	0.275
85.500	116.548	79.998	19.995	100.362	20.255	3.359	0.285
86.000	116.765	79.998	19.995	100.362	20.250	3.728	0.321
86.500	116.896	79.997	19.995	100.362	20.253	3.535	0.347
87.000	117.084	79.998	19.995	100.363	20.251	3.706	0.334
87.500	117.228	79.997	19.995	100.367	20.251	3.689	0.325
88.000	117.376	79.998	19.996	100.371	20.250	3.744	0.312
88.500	117.560	79.998	19.995	100.372	20.252	3.592	0.312
89.000	117.736	79.999	19.995	100.370	20.253	3.550	0.346
89.500	117.881	79.997	19.995	100.369	20.254	3.461	0.341
90.000	118.075	79.996	19.996	100.366	20.250	3.738	0.330
90.500	118.262	79.998	19.996	100.362	20.251	3.647	0.360
91.001	118.421	79.997	19.996	100.363	20.251	3.678	0.364
91.502	118.566	79.997	19.996	100.364	20.246	4.000	0.325
92.001	118.776	79.996	19.995	100.364	20.247	3.920	0.329
92.501	118.923	79.997	19.995	100.364	20.248	3.909	0.356
93.001	119.095	79.995	19.995	100.366	20.246	4.030	0.339
93.500	119.307	79.999	19.995	100.367	20.248	3.863	0.352
94.000	119.484	79.997	19.995	100.372	20.252	3.617	0.386
94.500	119.651	79.997	19.996	100.376	20.250	3.766	0.366
95.000	119.805	79.996	19.995	100.379	20.251	3.640	0.333
95.500	120.008	79.997	19.995	100.378	20.251	3.698	0.339
96.000	120.200	79.997	19.996	100.379	20.250	3.748	0.376
96.501	120.373	79.995	19.996	100.377	20.248	3.865	0.380
97.002	120.593	79.998	19.995	100.376	20.250	3.731	0.379
97.501	120.739	79.996	19.995	100.376	20.248	3.905	0.380
98.001	120.938	79.997	19.996	100.377	20.252	3.583	0.356
98.501	121.126	79.995	19.995	100.375	20.247	3.935	0.366
99.001	121.359	79.997	19.995	100.376	20.249	3.835	0.404
99.500	121.510	79.997	19.996	100.375	20.251	3.696	0.403
100.000	121.690	79.997	19.996	100.376	20.250	3.730	0.357
100.500	121.903	79.997	19.994	100.378	20.251	3.638	0.362
101.000	122.078	79.996	19.995	100.381	20.252	3.632	0.390
101.500	122.262	79.997	19.995	100.383	20.252	3.589	0.373
102.000	122.484	79.997	19.995	100.385	20.251	3.672	0.382
102.500	122.675	79.996	19.994	100.385	20.253	3.541	0.409
103.000	122.860	79.998	19.995	100.383	20.251	3.664	0.395
103.500	123.092	79.997	19.996	100.381	20.253	3.537	0.397
104.000	123.278	79.997	19.994	100.378	20.252	3.630	0.418
104.500	123.489	79.997	19.996	100.377	20.252	3.619	0.407
105.000	123.703	79.998	19.994	100.377	20.253	3.545	0.411
105.500	123.875	79.997	19.994	100.380	20.252	3.617	0.405
106.000	124.075	79.997	19.995	100.383	20.254	3.492	0.379
106.500	124.265	79.997	19.994	100.386	20.255	3.403	0.381
107.000	124.495	79.996	19.994	100.385	20.253	3.513	0.405
107.500	124.706	79.996	19.995	100.384	20.254	3.429	0.431
108.000	124.909	79.995	19.994	100.382	20.252	3.632	0.428
108.500	125.078	79.998	19.994	100.379	20.256	3.320	0.393
109.000	125.330	79.997	19.995	100.379	20.253	3.515	0.396
109.500	125.545	79.996	19.994	100.380	20.253	3.515	0.445
110.000	125.751	79.997	19.994	100.380	20.252	3.598	0.444
110.500	125.955	79.997	19.994	100.379	20.251	3.691	0.415
111.000	126.151	79.997	19.994	100.381	20.251	3.694	0.405
111.500	126.398	79.997	19.995	100.382	20.253	3.558	0.422
112.000	126.591	79.999	19.995	100.383	20.253	3.524	0.441
112.501	126.829	79.998	19.995	100.384	20.251	3.644	0.435
113.001	127.026	79.998	19.993	100.387	20.252	3.623	0.433
113.500	127.239	79.998	19.993	100.386	20.253	3.522	0.422
114.000	127.479	79.998	19.994	100.386	20.254	3.483	0.432
114.500	127.699	79.997	19.995	100.385	20.248	3.861	0.457
115.001	127.910	79.997	19.994	100.385	20.250	3.729	0.446
115.501	128.154	79.998	19.994	100.385	20.250	3.753	0.443
116.001	128.344	79.998	19.994	100.386	20.250	3.744	0.444
116.501	128.594	79.999	19.993	100.387	20.251	3.702	0.437
117.000	128.781	79.998	19.995	100.383	20.251	3.685	0.439
117.500	129.015	80.000	19.994	100.382	20.254	3.445	0.429
118.000	129.228	79.999	19.993	100.381	20.252	3.619	0.434
118.500	129.455	79.998	19.994	100.381	20.254	3.465	0.444
119.000	129.673	79.997	19.994	100.382	20.248	3.869	0.442
119.500	129.895	79.999	19.994	100.384	20.249	3.812	0.443
120.000	130.154	79.999	19.995	100.380	20.250	3.736	0.460
120.500	130.380	79.998	19.994	100.380	20.251	3.662	0.483
121.000	130.613	79.999	19.996	100.380	20.252	3.587	0.472
121.501	130.842	79.998	19.994	100.379	20.248	3.867	0.460
122.001	131.024	79.997	19.995	100.380	20.250	3.759	0.436
122.500	131.277	80.000	19.994	100.385	20.248	3.848	0.423
123.000	131.495	80.000	19.994	100.385	20.251	3.675	0.453
123.500	131.707	79.998	19.995	100.385	20.251	3.655	0.450
124.000	131.918	80.000	19.993	100.385	20.247	3.918	0.426
124.500	132.163	79.999	19.993	100.385	20.245	4.083	0.440
125.000	132.363	79.998	19.996	100.384	20.246	4.043	0.451
125.500	132.592	79.998	19.995	100.385	20.246	4.013	0.437
126.000	132.821	79.998	19.994	100.380	20.249	3.812	0.444
126.500	133.065	79.997	19.995	100.380	20.247	3.929	0.465
127.000	133.281	79.998	19.995	100.380	20.247	3.921	0.466
127.500	133.561	79.998	19.994	100.379	20.246	4.046	0.478
128.000	133.755	79.998	19.995	100.377	20.248	3.872	0.485
128.500	133.989	80.000	19.994	100.381	20.245	4.084	0.451
129.000	134.245	79.999	19.994	100.381	20.247	3.948	0.459
129.500	134.472	79.998	19.995	100.380	20.249	3.794	0.486
130.000	134.658	79.999	19.995	100.378	20.247	3.967	0.448
130.500	134.967	79.998	19.994	100.380	20.247	3.916	0.455
131.000	135.195	79.998	19.995	100.380	20.246	3.988	0.516
131.500	135.431	79.999	19.994	100.380	20.250	3.774	0.500
132.000	135.631	79.998	19.995	100.380	20.250	3.741	0.450
132.500	135.862	79.997	19.996	100.382	20.246	4.033	0.434
133.000	136.091	79.998	19.995	100.382	20.245	4.082	0.446
133.500	136.334	79.998	19.995	100.378	20.246	4.023	0.466
134.000	136.571	79.999	19.994	100.377	20.248	3.857	0.476
134.500	136.832	79.999	19.994	100.377	20.245	4.080	0.490
135.000	137.077	79.998	19.994	100.377	20.248	3.904	0.502
135.500	137.341	79.999	19.993	100.377	20.248	3.876	0.507
136.000	137.553	79.998	19.995	100.380	20.247	3.971	0.493
136.500	137.764	80.000	19.994	100.380	20.248	3.880	0.450
137.000	138.029	80.000	19.994	100.380	20.249	3.781	0.449
137.500	138.252	79.999	19.994	100.377	20.246	3.999	0.482
138.000	138.521	80.000	19.994	100.373	20.250	3.736	0.490
138.500	138.730	80.000	19.995	100.369	20.248	3.857	0.485
139.000	138.957	79.999	19.993	100.365	20.246	4.008	0.457
139.500	139.207	80.000	19.994	100.362	20.248	3.907	0.456
140.000	139.496	80.000	19.994	100.365	20.247	3.942	0.508
140.500	139.714	80.000	19.995	100.370	20.249	3.828	0.523
141.000	139.967	80.001	19.994	100.373	20.252	3.606	0.489
141.500	140.214	80.001	19.993	100.374	20.248	3.864	0.486
142.000	140.468	80.001	19.993	100.374	20.246	4.032	0.501
142.500	140.699	80.001	19.993	100.370	20.250	3.750	0.493
143.000	140.942	80.000	19.993	100.364	20.246	4.019	0.479
143.500	141.190	80.000	19.993	100.360	20.248	3.864	0.483
144.000	141.439	79.998	19.994	100.357	20.248	3.884	0.494
144.500	141.694	80.000	19.994	100.360	20.249	3.780	0.500
145.000	141.928	80.000	19.995	100.362	20.248	3.856	0.497
145.500	142.167	80.000	19.994	100.365	20.250	3.756	0.481
146.000	142.444	79.999	19.994	100.370	20.247	3.937	0.495
146.500	142.670	79.998	19.992	100.372	20.246	4.032	0.509
147.000	142.910	79.998	19.994	100.369	20.250	3.741	0.484
147.500	143.155	79.998	19.994	100.370	20.251	3.673	0.475
148.000	143.454	79.998	19.994	100.368	20.251	3.675	0.514
148.500	143.666	79.998	19.995	100.364	20.251	3.642	0.528
149.000	143.929	79.998	19.995	100.363	20.245	4.057	0.493
149.500	144.164	79.998	19.996	100.363	20.248	3.858	0.486
150.000	144.450	79.998	19.995	100.357	20.248	3.903	0.509
150.500	144.692	79.997	19.994	100.354	20.247	3.960	0.524
151.000	144.907	79.996	19.993	100.355	20.251	3.690	0.493
151.501	145.209	79.997	19.993	100.351	20.250	3.720	0.487
152.000	145.462	79.996	19.995	100.349	20.251	3.637	0.536
152.500	145.727	79.997	19.993	100.348	20.250	3.730	0.536
153.000	145.966	79.997	19.993	100.349	20.249	3.822	0.511
153.500	146.199	79.996	19.994	100.347	20.250	3.745	0.488
154.000	146.436	79.997	19.995	100.347	20.251	3.637	0.471
154.500	146.688	79.997	19.995	100.347	20.253	3.508	0.479
155.000	146.956	79.997	19.995	100.347	20.251	3.688	0.505
155.500	147.176	79.996	19.995	100.346	20.252	3.612	0.505
156.000	147.431	79.997	19.995	100.345	20.253	3.553	0.482
156.501	147.714	79.996	19.996	100.346	20.252	3.606	0.506
157.001	147.954	79.997	19.994	100.347	20.253	3.536	0.530
157.500	148.177	79.997	19.994	100.350	20.255	3.366	0.493
158.000	148.430	79.995	19.995	100.352	20.257	3.279	0.470
158.500	148.725	79.997	19.995	100.353	20.253	3.498	0.512
159.000	148.938	79.997	19.995	100.353	20.253	3.528	0.528
159.500	149.215	79.996	19.996	100.352	20.249	3.775	0.499
160.000	149.470	79.996	19.995	100.350	20.252	3.570	0.511
160.500	149.749	79.996	19.995	100.349	20.252	3.568	0.533
161.000	150.015	79.997	19.995	100.348	20.253	3.500	0.540
161.500	150.264	79.998	19.996	100.348	20.254	3.441	0.530
162.001	150.513	79.997	19.995	100.351	20.253	3.536	0.507
162.501	150.754	79.998	19.995	100.355	20.251	3.650	0.494
163.000	150.999	79.998	19.995	100.355	20.256	3.339	0.488
163.500	151.230	79.997	19.995	100.356	20.255	3.373	0.481
164.000	151.486	79.997	19.995	100.356	20.254	3.489	0.482
164.500	151.776	79.996	19.995	100.353	20.256	3.318	0.516
165.000	151.982	79.997	19.994	100.348	20.259	3.118	0.521
165.500	152.263	79.997	19.994	100.348	20.255	3.373	0.491
166.000	152.516	79.998	19.995	100.347	20.256	3.347	0.510
166.500	152.782	79.997	19.994	100.348	20.252	3.610	0.526
167.000	153.035	79.998	19.993	100.347	20.258	3.152	0.520
167.500	153.262	79.998	19.995	100.348	20.258	3.161	0.500
168.000	153.542	79.997	19.996	100.348	20.257	3.284	0.493
168.500	153.773	79.997	19.995	100.348	20.257	3.226	0.509
169.000	154.023	79.997	19.994	100.348	20.256	3.294	0.496
169.500	154.272	79.997	19.994	100.348	20.257	3.277	0.490
170.000	154.527	79.997	19.994	100.345	20.257	3.273	0.501
170.500	154.750	79.997	19.994	100.343	20.258	3.206	0.491
171.000	155.031	79.998	19.994	100.341	20.256	3.343	0.491
171.500	155.272	79.998	19.993	100.341	20.257	3.242	0.513
172.000	155.529	79.996	19.994	100.342	20.254	3.439	0.510
172.500	155.783	79.997	19.994	100.345	20.258	3.201	0.505
