Sample ID:	C:\MCC\PVC_MCC_30K_min_210920_R2.txt
Sample Weight (mg):	4.32
Heating Rate (C/s):	0.5
Combustor Temp (C):	900
N2 Flow Rate (cc/min):	80
O2 Flow Rate (cc/min):	20
Calibration File:	C:\MCC\MCC Cal\Coeff1 JN10440_30_210304.txt.txt
T Correction Coefficients:	0	1.024463	0
Time Shift (s):	14
*
Time (s)	Temperature (C)	N2 flow rate (cc/min)	O2 flow rate (cc/min)	Flow Rate (cc/min)	Oxygen (%)	HRR (W/g)	Heating rate (C/s)
0.000	108.164	80.002	19.995	100.159	20.073	-0.012	-0.028
0.500	108.185	80.000	19.995	100.155	20.072	0.047	0.013
1.000	108.139	80.000	19.995	100.156	20.074	-0.089	0.003
1.500	108.196	80.001	19.995	100.158	20.076	-0.199	-0.007
2.000	108.152	80.003	19.996	100.157	20.071	0.126	0.012
2.501	108.152	80.003	19.995	100.155	20.072	0.039	-0.015
3.000	108.179	80.002	19.995	100.155	20.074	-0.118	-0.009
3.500	108.179	80.001	19.995	100.154	20.075	-0.170	0.027
4.000	108.177	80.002	19.995	100.151	20.076	-0.245	0.012
4.500	108.149	80.003	19.995	100.149	20.077	-0.310	-0.016
5.000	108.158	80.002	19.994	100.150	20.076	-0.215	-0.025
5.500	108.142	80.004	19.994	100.153	20.075	-0.168	-0.013
6.000	108.167	80.002	19.995	100.153	20.074	-0.077	0.001
6.500	108.178	80.001	19.994	100.153	20.078	-0.357	0.022
7.000	108.169	80.003	19.994	100.153	20.075	-0.158	0.019
7.500	108.154	80.002	19.995	100.152	20.074	-0.067	-0.011
8.000	108.147	80.003	19.994	100.152	20.072	0.037	-0.023
8.500	108.184	80.005	19.994	100.157	20.075	-0.176	0.004
9.000	108.140	80.003	19.994	100.160	20.069	0.237	0.012
9.500	108.160	80.003	19.994	100.163	20.072	0.067	-0.015
10.000	108.172	80.003	19.993	100.170	20.074	-0.083	0.004
10.500	108.106	80.004	19.994	100.172	20.075	-0.160	-0.011
11.000	108.142	80.003	19.993	100.173	20.074	-0.122	-0.042
11.500	108.117	80.003	19.994	100.172	20.075	-0.154	-0.010
12.000	108.158	80.002	19.994	100.174	20.073	-0.026	0.013
12.500	108.145	80.004	19.994	100.174	20.072	0.059	0.022
13.000	108.165	80.002	19.994	100.175	20.071	0.162	0.018
13.500	108.135	80.002	19.994	100.177	20.073	-0.008	-0.001
14.000	108.158	80.005	19.993	100.178	20.073	0.016	-0.008
14.500	108.135	80.003	19.994	100.181	20.074	-0.083	-0.004
15.000	108.131	80.003	19.994	100.180	20.072	0.045	-0.014
15.501	108.163	80.005	19.993	100.181	20.074	-0.099	0.001
16.001	108.149	80.003	19.994	100.182	20.073	0.000	0.023
16.500	108.130	80.004	19.993	100.183	20.072	0.024	-0.008
17.000	108.176	80.003	19.994	100.183	20.071	0.164	-0.003
17.500	108.145	80.003	19.993	100.183	20.070	0.205	0.021
18.000	108.154	80.002	19.994	100.184	20.070	0.215	-0.004
18.500	108.196	80.002	19.994	100.186	20.067	0.426	0.015
19.000	108.196	80.001	19.993	100.190	20.069	0.262	0.047
19.500	108.184	80.001	19.994	100.198	20.069	0.278	0.015
20.000	108.181	80.002	19.993	100.206	20.068	0.363	-0.014
20.500	108.229	80.001	19.993	100.214	20.067	0.389	0.015
21.000	108.206	80.002	19.994	100.218	20.067	0.420	0.035
21.500	108.201	80.001	19.994	100.222	20.066	0.507	-0.002
22.000	108.195	80.001	19.994	100.221	20.064	0.608	-0.020
22.500	108.185	80.002	19.994	100.220	20.068	0.361	-0.014
23.000	108.244	80.001	19.994	100.217	20.065	0.527	0.016
23.500	108.217	80.002	19.995	100.215	20.063	0.697	0.040
24.000	108.253	80.001	19.994	100.211	20.065	0.594	0.020
24.500	108.281	80.002	19.994	100.210	20.066	0.456	0.036
25.000	108.290	80.001	19.995	100.205	20.066	0.509	0.050
25.500	108.286	80.001	19.994	100.205	20.065	0.576	0.021
26.001	108.300	80.000	19.995	100.206	20.069	0.306	0.008
26.501	108.329	80.001	19.994	100.208	20.066	0.484	0.027
27.000	108.299	80.001	19.995	100.210	20.068	0.336	0.021
27.501	108.310	80.001	19.995	100.215	20.068	0.361	-0.010
28.001	108.328	80.002	19.995	100.218	20.068	0.359	0.005
28.500	108.326	80.002	19.994	100.220	20.066	0.503	0.023
29.000	108.332	80.002	19.996	100.219	20.065	0.559	0.010
29.500	108.390	80.001	19.994	100.212	20.068	0.375	0.034
30.000	108.408	80.000	19.994	100.205	20.067	0.401	0.070
30.500	108.417	80.002	19.995	100.198	20.067	0.391	0.051
31.000	108.452	80.001	19.995	100.196	20.069	0.308	0.035
31.500	108.431	80.000	19.995	100.198	20.066	0.496	0.029
32.000	108.444	80.002	19.995	100.202	20.067	0.448	0.003
32.500	108.478	80.002	19.995	100.208	20.067	0.383	0.020
33.000	108.483	80.003	19.994	100.213	20.069	0.298	0.043
33.500	108.522	80.000	19.995	100.211	20.067	0.417	0.041
34.001	108.524	80.001	19.994	100.204	20.066	0.482	0.043
34.501	108.538	80.002	19.994	100.200	20.064	0.634	0.028
35.000	108.537	80.002	19.995	100.194	20.066	0.454	0.014
35.500	108.580	80.002	19.995	100.190	20.066	0.520	0.027
36.000	108.569	80.001	19.995	100.195	20.063	0.737	0.037
36.500	108.611	80.001	19.995	100.203	20.061	0.885	0.032
37.000	108.642	80.003	19.993	100.210	20.061	0.856	0.053
37.500	108.640	80.003	19.995	100.217	20.061	0.883	0.051
38.000	108.668	80.003	19.994	100.223	20.061	0.873	0.027
38.500	108.690	80.004	19.994	100.223	20.060	0.956	0.038
39.000	108.694	80.002	19.993	100.225	20.058	1.038	0.038
39.500	108.729	80.001	19.994	100.230	20.056	1.225	0.032
40.000	108.750	80.002	19.994	100.234	20.061	0.868	0.048
40.500	108.810	80.001	19.993	100.239	20.059	0.978	0.069
41.001	108.816	80.001	19.995	100.246	20.057	1.150	0.074
41.501	108.836	80.001	19.994	100.251	20.056	1.245	0.046
42.000	108.831	80.002	19.994	100.254	20.057	1.142	0.020
42.501	108.860	80.002	19.994	100.258	20.055	1.273	0.020
43.001	108.923	80.002	19.993	100.265	20.052	1.512	0.058
43.501	108.935	80.003	19.993	100.274	20.053	1.461	0.083
44.000	108.960	80.003	19.994	100.283	20.051	1.601	0.056
44.500	109.022	80.002	19.994	100.293	20.052	1.510	0.062
45.000	109.021	80.004	19.995	100.302	20.048	1.759	0.074
45.500	109.031	80.003	19.994	100.309	20.051	1.593	0.035
46.000	109.135	80.002	19.993	100.315	20.048	1.797	0.061
46.500	109.149	80.002	19.994	100.321	20.046	1.939	0.116
47.000	109.162	80.002	19.993	100.326	20.047	1.866	0.073
47.500	109.238	80.003	19.993	100.333	20.045	1.986	0.058
48.000	109.262	80.000	19.993	100.338	20.048	1.802	0.094
48.500	109.276	80.002	19.994	100.341	20.048	1.799	0.069
49.000	109.334	80.002	19.993	100.343	20.042	2.251	0.054
49.500	109.364	80.001	19.994	100.345	20.044	2.083	0.080
50.000	109.400	80.001	19.993	100.345	20.044	2.054	0.077
50.500	109.466	80.001	19.994	100.345	20.044	2.121	0.085
51.000	109.547	80.001	19.994	100.346	20.044	2.085	0.125
51.500	109.578	80.001	19.993	100.345	20.042	2.194	0.129
52.000	109.649	80.002	19.994	100.344	20.044	2.060	0.107
52.500	109.728	80.001	19.994	100.344	20.042	2.261	0.126
53.000	109.787	79.999	19.994	100.346	20.044	2.088	0.144
53.500	109.784	80.004	19.992	100.346	20.043	2.125	0.097
54.000	109.933	80.000	19.994	100.349	20.043	2.163	0.102
54.500	109.962	80.000	19.994	100.354	20.044	2.072	0.162
55.000	110.021	80.003	19.994	100.357	20.042	2.250	0.133
55.500	110.035	80.002	19.994	100.363	20.045	1.991	0.081
56.000	110.183	80.001	19.995	100.366	20.045	2.026	0.117
56.500	110.292	80.001	19.994	100.367	20.044	2.090	0.209
57.000	110.286	79.999	19.995	100.366	20.040	2.394	0.180
57.500	110.442	80.002	19.994	100.363	20.042	2.258	0.127
58.000	110.470	79.998	19.995	100.358	20.042	2.256	0.167
58.501	110.531	80.002	19.994	100.356	20.039	2.447	0.136
59.001	110.613	80.001	19.994	100.353	20.044	2.113	0.116
59.500	110.693	80.002	19.993	100.354	20.043	2.141	0.153
60.000	110.768	80.002	19.996	100.355	20.043	2.180	0.159
60.500	110.847	80.001	19.995	100.357	20.039	2.430	0.155
61.000	110.933	80.001	19.997	100.358	20.039	2.445	0.160
61.500	111.036	80.001	19.995	100.361	20.041	2.317	0.177
62.000	111.106	80.002	19.994	100.364	20.040	2.382	0.181
62.500	111.211	80.000	19.994	100.368	20.042	2.206	0.174
63.000	111.308	80.002	19.995	100.370	20.041	2.323	0.188
63.500	111.376	80.001	19.995	100.375	20.038	2.519	0.183
64.000	111.492	80.002	19.995	100.378	20.040	2.362	0.174
64.500	111.577	80.001	19.994	100.379	20.040	2.386	0.193
65.000	111.681	80.002	19.995	100.381	20.041	2.325	0.195
65.501	111.813	80.002	19.994	100.381	20.042	2.260	0.212
66.001	111.867	80.003	19.995	100.382	20.039	2.445	0.211
66.500	112.020	80.001	19.994	100.382	20.040	2.370	0.196
67.000	112.107	80.003	19.996	100.381	20.041	2.287	0.223
67.500	112.211	80.002	19.994	100.378	20.037	2.614	0.215
68.000	112.326	80.004	19.994	100.377	20.039	2.438	0.205
68.500	112.423	80.003	19.994	100.376	20.039	2.414	0.215
69.000	112.513	80.002	19.994	100.376	20.037	2.576	0.200
69.500	112.623	80.005	19.995	100.375	20.039	2.448	0.194
70.000	112.744	80.002	19.995	100.376	20.039	2.481	0.215
70.501	112.856	80.004	19.995	100.377	20.040	2.374	0.232
71.001	112.939	80.004	19.994	100.377	20.036	2.641	0.214
71.501	113.068	80.002	19.995	100.377	20.040	2.394	0.203
72.000	113.185	80.003	19.995	100.378	20.036	2.667	0.229
72.500	113.295	80.004	19.993	100.379	20.037	2.602	0.236
73.000	113.410	80.003	19.995	100.379	20.036	2.640	0.226
73.500	113.523	80.002	19.995	100.379	20.038	2.521	0.226
74.000	113.666	80.002	19.994	100.379	20.040	2.406	0.242
74.500	113.765	80.002	19.994	100.379	20.034	2.834	0.249
75.000	113.934	80.002	19.994	100.379	20.034	2.776	0.256
75.500	114.045	80.001	19.995	100.378	20.037	2.565	0.274
76.000	114.124	80.001	19.994	100.379	20.034	2.814	0.235
76.500	114.298	80.004	19.994	100.380	20.036	2.658	0.222
77.001	114.388	80.002	19.995	100.381	20.037	2.585	0.259
77.501	114.536	80.002	19.995	100.383	20.036	2.697	0.251
78.000	114.643	80.002	19.994	100.385	20.035	2.769	0.246
78.500	114.779	80.002	19.995	100.387	20.037	2.595	0.249
79.000	114.894	80.003	19.994	100.388	20.032	2.921	0.247
79.500	115.041	80.002	19.995	100.388	20.034	2.836	0.256
80.000	115.195	80.003	19.995	100.386	20.036	2.638	0.282
80.500	115.333	80.003	19.994	100.385	20.033	2.883	0.297
81.000	115.463	80.000	19.994	100.383	20.035	2.761	0.280
81.500	115.595	80.001	19.995	100.381	20.033	2.899	0.265
82.000	115.736	80.002	19.994	100.382	20.034	2.840	0.268
82.500	115.842	79.999	19.995	100.385	20.031	3.016	0.260
83.000	116.033	80.001	19.995	100.387	20.033	2.913	0.272
83.500	116.127	80.003	19.994	100.392	20.033	2.862	0.291
84.000	116.306	80.001	19.994	100.398	20.034	2.838	0.279
84.500	116.410	80.003	19.996	100.402	20.035	2.761	0.278
85.000	116.574	80.000	19.995	100.403	20.030	3.065	0.275
85.500	116.736	80.003	19.995	100.408	20.035	2.717	0.297
86.000	116.877	80.004	19.995	100.410	20.033	2.883	0.315
86.500	117.002	80.001	19.995	100.411	20.034	2.814	0.285
87.000	117.156	79.997	19.997	100.413	20.034	2.812	0.273
87.500	117.312	80.002	19.996	100.414	20.033	2.895	0.294
88.000	117.468	80.000	19.996	100.414	20.031	3.055	0.310
88.500	117.592	80.001	19.995	100.412	20.032	2.966	0.296
89.000	117.739	80.001	19.996	100.412	20.034	2.779	0.276
89.501	117.931	80.002	19.996	100.412	20.033	2.870	0.305
90.001	118.074	80.001	19.996	100.413	20.034	2.828	0.337
90.501	118.261	80.004	19.996	100.413	20.032	2.982	0.332
91.001	118.421	80.003	19.996	100.415	20.033	2.915	0.338
91.500	118.566	80.002	19.996	100.415	20.029	3.158	0.326
92.000	118.751	80.003	19.995	100.415	20.030	3.067	0.317
92.500	118.867	80.002	19.996	100.416	20.031	3.052	0.316
93.000	119.027	80.005	19.994	100.415	20.033	2.879	0.289
93.500	119.187	80.004	19.994	100.415	20.031	3.022	0.298
94.000	119.363	80.004	19.996	100.416	20.032	2.971	0.328
94.500	119.515	80.004	19.994	100.416	20.032	2.961	0.332
95.000	119.684	80.003	19.996	100.415	20.030	3.069	0.324
95.500	119.852	80.002	19.995	100.415	20.030	3.121	0.329
96.000	120.018	80.003	19.996	100.415	20.031	3.036	0.335
96.500	120.196	80.003	19.995	100.415	20.033	2.899	0.339
97.001	120.360	80.001	19.996	100.415	20.030	3.115	0.343
97.501	120.567	80.005	19.995	100.414	20.026	3.427	0.356
98.000	120.738	80.004	19.994	100.415	20.031	3.002	0.374
98.500	120.883	80.003	19.995	100.416	20.030	3.075	0.347
99.000	121.067	80.003	19.995	100.415	20.029	3.196	0.323
99.500	121.208	80.003	19.994	100.415	20.032	2.969	0.327
100.000	121.438	80.004	19.995	100.417	20.030	3.079	0.348
100.500	121.624	80.001	19.995	100.417	20.033	2.870	0.394
101.000	121.784	80.003	19.995	100.417	20.030	3.075	0.381
101.500	121.985	80.002	19.994	100.417	20.029	3.208	0.353
102.000	122.161	80.002	19.995	100.418	20.029	3.180	0.369
102.500	122.314	80.000	19.994	100.417	20.031	3.032	0.353
103.000	122.551	80.003	19.995	100.417	20.031	3.022	0.359
103.500	122.688	80.004	19.994	100.417	20.028	3.224	0.382
104.000	122.923	80.001	19.995	100.418	20.031	3.010	0.372
104.500	123.088	80.000	19.994	100.418	20.029	3.186	0.386
105.000	123.247	80.002	19.994	100.420	20.027	3.327	0.362
105.500	123.444	80.000	19.994	100.421	20.030	3.117	0.340
106.000	123.665	80.001	19.994	100.421	20.032	2.993	0.386
106.500	123.836	80.001	19.995	100.421	20.030	3.111	0.405
107.000	124.038	80.002	19.994	100.421	20.031	2.994	0.383
107.500	124.221	80.000	19.994	100.421	20.031	3.060	0.379
108.000	124.423	80.001	19.996	100.421	20.031	3.016	0.385
108.500	124.569	79.998	19.994	100.422	20.031	3.032	0.366
109.001	124.780	79.999	19.995	100.421	20.032	2.979	0.353
109.501	124.991	80.000	19.995	100.421	20.030	3.093	0.390
110.000	125.171	79.999	19.994	100.422	20.032	2.988	0.407
110.500	125.387	80.002	19.994	100.422	20.032	2.979	0.393
111.000	125.584	80.000	19.994	100.423	20.032	2.955	0.404
111.500	125.746	79.999	19.994	100.424	20.030	3.083	0.386
112.000	125.934	80.001	19.994	100.424	20.030	3.087	0.355
112.501	126.159	80.000	19.994	100.423	20.028	3.224	0.381
113.001	126.352	80.001	19.994	100.423	20.031	3.028	0.415
113.501	126.593	80.000	19.994	100.422	20.031	3.022	0.426
114.000	126.796	79.999	19.995	100.423	20.032	2.959	0.439
114.500	126.998	80.001	19.994	100.426	20.030	3.137	0.424
115.000	127.190	79.999	19.995	100.427	20.029	3.143	0.399
115.500	127.384	80.003	19.994	100.428	20.027	3.309	0.390
116.000	127.602	80.002	19.993	100.431	20.026	3.412	0.399
116.500	127.817	80.001	19.993	100.431	20.027	3.350	0.423
117.000	128.043	80.002	19.994	100.429	20.028	3.255	0.437
117.500	128.209	80.001	19.994	100.429	20.030	3.109	0.416
118.000	128.438	80.000	19.994	100.428	20.025	3.437	0.393
118.500	128.652	80.001	19.993	100.425	20.027	3.333	0.419
119.000	128.867	80.000	19.993	100.424	20.025	3.463	0.436
119.500	129.074	80.003	19.993	100.423	20.027	3.321	0.426
120.000	129.268	80.000	19.994	100.425	20.028	3.250	0.412
120.500	129.506	80.002	19.994	100.425	20.027	3.338	0.417
121.000	129.707	80.001	19.994	100.425	20.026	3.374	0.435
121.500	129.949	80.002	19.994	100.424	20.028	3.236	0.441
122.001	130.148	80.002	19.994	100.424	20.028	3.218	0.442
122.501	130.369	80.004	19.994	100.423	20.027	3.323	0.431
123.000	130.569	80.000	19.994	100.422	20.025	3.449	0.420
123.501	130.786	80.002	19.993	100.423	20.028	3.234	0.419
124.001	131.028	80.001	19.993	100.423	20.028	3.226	0.438
124.501	131.206	80.001	19.993	100.423	20.029	3.176	0.439
125.001	131.476	80.001	19.993	100.423	20.027	3.303	0.434
125.501	131.665	80.001	19.994	100.422	20.028	3.224	0.453
126.001	131.918	79.998	19.995	100.422	20.031	3.036	0.451
126.501	132.125	80.000	19.995	100.421	20.028	3.218	0.451
127.001	132.349	79.999	19.994	100.419	20.030	3.066	0.445
127.501	132.547	80.003	19.995	100.419	20.027	3.336	0.426
128.001	132.765	80.001	19.994	100.419	20.030	3.083	0.419
128.500	133.012	80.000	19.994	100.420	20.029	3.164	0.441
129.000	133.210	80.008	19.992	100.422	20.030	3.111	0.455
129.501	133.472	79.998	19.995	100.425	20.031	3.059	0.453
130.001	133.639	80.000	19.993	100.425	20.031	3.026	0.444
130.501	133.854	80.001	19.993	100.426	20.029	3.202	0.405
131.001	134.108	79.997	19.994	100.425	20.030	3.111	0.426
131.500	134.315	79.999	19.993	100.424	20.027	3.299	0.465
132.000	134.549	80.001	19.994	100.421	20.031	3.050	0.451
132.500	134.749	79.996	19.994	100.422	20.028	3.245	0.438
133.000	134.988	79.999	19.994	100.420	20.029	3.192	0.436
133.500	135.228	80.004	19.993	100.419	20.032	2.951	0.459
134.000	135.448	80.003	19.995	100.419	20.030	3.101	0.470
134.500	135.696	79.999	19.993	100.420	20.029	3.202	0.465
135.000	135.908	79.999	19.994	100.419	20.028	3.224	0.464
135.500	136.147	80.001	19.994	100.421	20.031	3.058	0.455
136.000	136.378	80.000	19.993	100.421	20.029	3.184	0.460
136.500	136.604	80.002	19.994	100.423	20.028	3.223	0.464
137.000	136.860	79.997	19.994	100.423	20.028	3.220	0.469
137.500	137.089	79.998	19.993	100.423	20.028	3.241	0.483
138.001	137.324	80.003	19.995	100.423	20.029	3.188	0.475
138.501	137.536	79.993	19.996	100.423	20.026	3.368	0.456
139.001	137.813	79.995	19.993	100.419	20.026	3.417	0.468
139.501	138.033	79.998	19.995	100.418	20.028	3.249	0.493
140.000	138.239	79.996	19.994	100.417	20.026	3.421	0.461
140.500	138.479	79.999	19.994	100.418	20.029	3.156	0.436
141.000	138.679	80.010	19.993	100.417	20.029	3.138	0.443
141.500	138.967	79.995	19.996	100.420	20.027	3.354	0.464
142.001	139.201	80.003	19.995	100.420	20.030	3.091	0.505
142.501	139.417	79.991	19.996	100.421	20.028	3.231	0.486
143.000	139.662	79.996	19.995	100.418	20.027	3.350	0.455
143.500	139.888	80.002	19.995	100.417	20.027	3.293	0.466
144.000	140.173	80.007	19.992	100.417	20.024	3.514	0.491
144.500	140.395	80.004	19.995	100.419	20.028	3.222	0.509
145.000	140.607	80.004	19.994	100.419	20.027	3.303	0.471
145.500	140.858	79.997	19.995	100.420	20.028	3.253	0.449
146.000	141.064	80.000	19.995	100.420	20.027	3.332	0.459
146.500	141.330	80.003	19.992	100.420	20.027	3.352	0.464
147.000	141.513	79.990	19.996	100.418	20.026	3.386	0.461
147.500	141.788	80.009	19.990	100.414	20.027	3.295	0.454
148.000	142.064	79.994	19.996	100.416	20.030	3.077	0.504
148.500	142.287	80.010	19.994	100.415	20.026	3.408	0.525
149.000	142.472	79.998	19.994	100.417	20.029	3.184	0.453
149.501	142.729	80.005	19.996	100.415	20.032	2.982	0.425
150.001	143.024	80.001	19.995	100.418	20.028	3.255	0.497
150.500	143.223	79.992	19.995	100.416	20.030	3.095	0.523
151.000	143.481	80.004	19.993	100.416	20.028	3.277	0.476
151.500	143.748	80.001	19.994	100.416	20.025	3.494	0.491
152.000	143.973	80.002	19.996	100.416	20.025	3.473	0.508
152.500	144.234	79.998	19.993	100.414	20.028	3.237	0.489
153.001	144.498	80.001	19.995	100.414	20.026	3.425	0.505
153.501	144.707	80.001	19.996	100.416	20.027	3.315	0.498
154.000	144.938	80.002	19.995	100.413	20.026	3.396	0.456
154.500	145.174	80.005	19.995	100.414	20.028	3.221	0.454
155.000	145.446	80.001	19.995	100.415	20.031	3.010	0.488
155.500	145.706	80.001	19.994	100.414	20.026	3.381	0.520
156.000	145.932	80.007	19.993	100.414	20.027	3.332	0.509
156.500	146.158	79.988	19.997	100.417	20.029	3.188	0.469
157.000	146.449	80.011	19.994	100.414	20.029	3.208	0.485
157.501	146.639	79.996	19.995	100.417	20.030	3.093	0.499
158.001	146.896	80.002	19.996	100.416	20.026	3.411	0.464
158.501	147.183	80.000	19.994	100.414	20.028	3.229	0.496
159.001	147.414	80.016	19.992	100.414	20.027	3.326	0.530
159.501	147.633	80.002	19.995	100.419	20.024	3.569	0.484
160.001	147.878	79.996	19.994	100.416	20.028	3.279	0.457
160.501	148.113	80.001	19.994	100.416	20.030	3.111	0.472
161.000	148.352	79.999	19.996	100.417	20.028	3.251	0.477
161.500	148.625	79.996	19.996	100.415	20.030	3.127	0.493
162.000	148.874	80.013	19.992	100.412	20.027	3.331	0.517
162.500	149.148	80.001	19.994	100.414	20.031	3.060	0.522
163.000	149.388	80.004	19.993	100.415	20.031	3.000	0.518
163.501	149.625	80.021	19.991	100.417	20.024	3.536	0.496
164.001	149.882	80.007	19.994	100.421	20.032	2.962	0.485
164.500	150.135	79.993	19.999	100.423	20.033	2.903	0.502
165.000	150.348	79.989	19.998	100.418	20.026	3.365	0.488
165.500	150.637	79.997	19.997	100.414	20.031	3.059	0.484
166.000	150.855	80.002	19.995	100.412	20.033	2.899	0.504
166.500	151.114	80.001	19.995	100.408	20.031	3.025	0.492
167.000	151.385	79.999	19.995	100.406	20.031	3.017	0.504
167.501	151.614	80.005	19.994	100.406	20.033	2.865	0.515
168.001	151.844	79.994	19.997	100.411	20.029	3.167	0.480
168.500	152.143	79.999	19.995	100.406	20.030	3.130	0.494
169.001	152.363	80.002	19.994	100.404	20.034	2.811	0.524
169.501	152.627	79.995	19.996	100.402	20.031	3.033	0.502
170.001	152.904	80.006	19.991	100.400	20.031	3.011	0.512
170.501	153.105	80.001	19.992	100.402	20.030	3.098	0.510
171.000	153.360	80.001	19.992	100.408	20.032	2.992	0.467
171.500	153.589	80.013	19.992	100.410	20.030	3.102	0.470
172.000	153.879	80.003	19.992	100.417	20.029	3.163	0.502
172.500	154.089	80.013	19.993	100.422	20.026	3.391	0.510
