Sample ID:	C:\MCC\MCC Cal\Test\Nylon_Carpet_HighPile_MCC_30K_min_211027_R2.txt
Sample Weight (mg):	4.14
Heating Rate (C/s):	1
Combustor Temp (C):	900
N2 Flow Rate (cc/min):	80
O2 Flow Rate (cc/min):	20
Calibration File:	C:\MCC\MCC Cal\Coeff1 JN10440_30_210304.txt.txt
T Correction Coefficients:	0	1.024463	0
Time Shift (s):	14
*
Time (s)	Temperature (C)	N2 flow rate (cc/min)	O2 flow rate (cc/min)	Flow Rate (cc/min)	Oxygen (%)	HRR (W/g)	Heating rate (C/s)
0.000	108.464	80.001	19.995	103.045	20.031	0.333	-0.000
0.500	108.445	80.001	19.995	103.044	20.034	0.124	0.005
1.000	108.468	80.001	19.995	103.045	20.031	0.303	0.001
1.500	108.483	80.001	19.995	103.047	20.032	0.224	0.021
2.000	108.450	80.002	19.995	103.051	20.031	0.311	0.010
2.500	108.445	80.001	19.997	103.050	20.031	0.344	-0.028
3.000	108.434	80.001	19.996	103.050	20.032	0.241	-0.026
3.500	108.434	79.999	19.995	103.053	20.034	0.096	-0.013
4.000	108.438	80.001	19.994	103.053	20.032	0.260	-0.004
4.500	108.460	80.001	19.994	103.055	20.033	0.213	0.014
5.000	108.443	80.001	19.996	103.055	20.031	0.305	0.015
5.500	108.429	80.001	19.994	103.053	20.034	0.109	-0.013
6.000	108.420	80.000	19.996	103.047	20.032	0.286	-0.027
6.500	108.427	80.001	19.995	103.049	20.033	0.175	-0.012
7.000	108.450	80.001	19.996	103.052	20.031	0.320	0.014
7.500	108.423	80.001	19.995	103.060	20.032	0.267	0.013
8.000	108.392	80.000	19.994	103.070	20.027	0.634	-0.030
8.500	108.386	79.999	19.995	103.085	20.027	0.645	-0.047
9.000	108.419	80.001	19.995	103.094	20.024	0.846	-0.005
9.500	108.423	80.001	19.996	103.103	20.026	0.711	0.032
10.000	108.396	80.000	19.995	103.110	20.027	0.682	0.007
10.500	108.447	80.002	19.995	103.118	20.024	0.885	0.000
11.000	108.446	80.000	19.995	103.128	20.022	1.064	0.037
11.500	108.426	79.999	19.995	103.143	20.018	1.348	0.015
12.000	108.453	80.000	19.996	103.159	20.019	1.244	-0.007
12.500	108.467	80.001	19.994	103.175	20.020	1.201	0.024
13.000	108.480	80.000	19.995	103.188	20.015	1.571	0.034
13.500	108.488	80.000	19.995	103.202	20.015	1.609	0.024
14.000	108.502	80.001	19.997	103.214	20.013	1.766	0.021
14.500	108.498	80.000	19.995	103.224	20.012	1.804	0.016
15.000	108.506	80.000	19.995	103.237	20.009	2.050	0.007
15.500	108.556	80.001	19.996	103.249	20.008	2.121	0.031
16.000	108.591	80.001	19.995	103.257	20.006	2.283	0.071
16.500	108.622	80.001	19.994	103.260	20.006	2.311	0.075
17.000	108.616	80.002	19.995	103.265	20.000	2.740	0.045
17.500	108.679	80.000	19.995	103.267	19.997	2.965	0.042
18.000	108.743	80.002	19.995	103.269	19.998	2.901	0.092
18.500	108.731	80.000	19.995	103.276	19.995	3.106	0.089
19.000	108.815	80.001	19.995	103.287	19.994	3.196	0.061
19.500	108.842	80.001	19.995	103.301	19.996	3.089	0.091
20.000	108.892	80.000	19.996	103.316	19.993	3.295	0.094
20.500	108.954	80.001	19.995	103.330	19.989	3.633	0.095
21.000	109.045	80.001	19.995	103.344	19.983	4.060	0.132
21.500	109.081	80.002	19.995	103.353	19.985	3.934	0.140
22.000	109.139	80.003	19.996	103.361	19.990	3.545	0.110
22.500	109.201	80.000	19.994	103.369	19.983	4.041	0.107
23.000	109.300	80.002	19.995	103.377	19.983	4.105	0.141
23.500	109.370	80.002	19.995	103.380	19.984	3.998	0.165
24.000	109.452	80.001	19.994	103.384	19.979	4.417	0.161
24.500	109.527	80.002	19.995	103.388	19.976	4.615	0.155
25.000	109.609	80.002	19.995	103.393	19.975	4.686	0.157
25.500	109.725	80.002	19.996	103.400	19.971	5.010	0.177
26.000	109.876	80.001	19.996	103.402	19.978	4.474	0.232
26.500	109.989	80.003	19.995	103.401	19.976	4.596	0.265
27.000	110.011	80.004	19.995	103.399	19.973	4.863	0.200
27.500	110.135	80.002	19.995	103.392	19.971	5.044	0.141
28.000	110.239	80.002	19.996	103.387	19.968	5.220	0.187
28.500	110.349	80.002	19.997	103.386	19.973	4.865	0.221
29.000	110.474	80.002	19.996	103.390	19.969	5.143	0.224
29.500	110.577	80.002	19.995	103.396	19.970	5.050	0.232
30.000	110.705	80.001	19.995	103.404	19.967	5.311	0.229
30.500	110.878	80.001	19.995	103.410	19.972	4.924	0.266
31.000	111.025	80.001	19.997	103.416	19.968	5.212	0.311
31.500	111.105	80.002	19.995	103.419	19.966	5.436	0.274
32.001	111.290	80.001	19.997	103.419	19.968	5.259	0.246
32.500	111.359	80.001	19.996	103.419	19.968	5.205	0.259
33.000	111.559	80.000	19.996	103.419	19.963	5.626	0.261
33.500	111.639	80.000	19.996	103.419	19.965	5.446	0.275
34.000	111.818	80.001	19.996	103.417	19.967	5.303	0.270
34.501	111.932	79.999	19.995	103.412	19.962	5.703	0.276
35.001	112.106	80.001	19.996	103.405	19.972	4.899	0.290
35.501	112.303	79.999	19.996	103.400	19.966	5.436	0.329
36.001	112.509	79.999	19.996	103.395	19.962	5.701	0.387
36.500	112.587	80.000	19.996	103.392	19.962	5.706	0.344
37.000	112.760	80.000	19.995	103.392	19.962	5.704	0.267
37.500	112.955	80.001	19.995	103.392	19.966	5.416	0.309
38.000	113.048	79.999	19.995	103.391	19.967	5.317	0.328
38.501	113.255	80.000	19.996	103.389	19.965	5.506	0.294
39.001	113.409	80.000	19.995	103.390	19.967	5.309	0.331
39.501	113.620	80.001	19.995	103.395	19.967	5.315	0.363
40.001	113.800	80.000	19.995	103.402	19.963	5.619	0.378
40.501	113.982	80.000	19.995	103.409	19.963	5.596	0.377
41.000	114.159	79.999	19.995	103.415	19.966	5.405	0.361
41.500	114.388	80.000	19.996	103.416	19.963	5.625	0.383
42.000	114.559	80.000	19.995	103.411	19.966	5.403	0.403
42.501	114.681	80.001	19.994	103.405	19.967	5.285	0.346
43.001	114.910	80.001	19.995	103.399	19.965	5.462	0.322
43.500	115.183	80.000	19.995	103.393	19.965	5.462	0.427
44.000	115.377	80.001	19.995	103.391	19.967	5.358	0.484
44.500	115.509	80.002	19.996	103.392	19.966	5.371	0.396
45.000	115.695	79.999	19.996	103.395	19.964	5.535	0.321
45.500	115.862	80.002	19.995	103.395	19.963	5.636	0.336
46.001	116.079	80.000	19.995	103.398	19.964	5.536	0.369
46.501	116.310	80.000	19.995	103.399	19.964	5.534	0.416
47.000	116.546	80.001	19.995	103.403	19.965	5.489	0.458
47.500	116.673	80.000	19.995	103.408	19.964	5.564	0.415
48.000	116.974	80.000	19.995	103.410	19.964	5.547	0.395
48.500	117.111	79.999	19.995	103.415	19.963	5.637	0.433
49.000	117.439	80.001	19.995	103.419	19.963	5.656	0.452
49.500	117.594	80.000	19.996	103.421	19.963	5.626	0.474
50.000	117.777	80.001	19.995	103.421	19.961	5.765	0.411
50.500	118.049	80.000	19.996	103.423	19.959	5.926	0.397
51.000	118.271	80.001	19.995	103.423	19.963	5.605	0.475
51.500	118.483	80.000	19.995	103.423	19.961	5.768	0.464
52.000	118.719	80.000	19.996	103.420	19.962	5.689	0.440
52.500	118.956	80.000	19.994	103.416	19.961	5.777	0.460
53.001	119.193	80.000	19.996	103.414	19.962	5.739	0.474
53.501	119.439	80.000	19.994	103.412	19.959	5.927	0.479
54.001	119.662	79.999	19.995	103.409	19.960	5.897	0.476
54.500	119.888	80.000	19.995	103.411	19.962	5.709	0.458
55.000	120.153	80.000	19.995	103.412	19.960	5.866	0.470
55.500	120.386	79.999	19.995	103.415	19.959	5.941	0.494
56.001	120.616	80.000	19.995	103.417	19.962	5.725	0.480
56.501	120.881	80.001	19.995	103.421	19.962	5.691	0.479
57.000	121.118	80.000	19.995	103.423	19.962	5.711	0.499
57.501	121.355	80.001	19.994	103.426	19.961	5.824	0.488
58.001	121.630	80.000	19.995	103.426	19.958	6.011	0.493
58.500	121.876	80.001	19.995	103.426	19.958	6.047	0.516
59.000	122.138	80.001	19.997	103.427	19.960	5.878	0.515
59.500	122.371	80.000	19.995	103.429	19.956	6.175	0.501
60.000	122.603	79.999	19.995	103.430	19.955	6.272	0.479
60.500	122.892	80.000	19.995	103.430	19.955	6.291	0.493
61.000	123.166	80.000	19.995	103.433	19.959	5.940	0.542
61.500	123.426	79.999	19.995	103.437	19.956	6.177	0.549
62.000	123.674	80.002	19.995	103.443	19.954	6.346	0.521
62.500	123.961	80.000	19.994	103.449	19.953	6.404	0.521
63.001	124.247	80.001	19.994	103.456	19.954	6.305	0.554
63.501	124.489	80.000	19.995	103.461	19.954	6.331	0.550
64.000	124.776	80.000	19.996	103.465	19.952	6.517	0.529
64.500	125.021	79.999	19.995	103.465	19.954	6.372	0.530
65.000	125.300	79.999	19.994	103.468	19.955	6.286	0.528
65.500	125.597	80.001	19.995	103.472	19.954	6.344	0.550
66.000	125.902	79.999	19.995	103.478	19.951	6.593	0.589
66.501	126.229	80.000	19.995	103.485	19.950	6.676	0.617
67.001	126.506	80.000	19.994	103.490	19.947	6.865	0.618
67.501	126.763	80.000	19.995	103.493	19.950	6.616	0.569
68.001	127.053	80.001	19.994	103.498	19.951	6.606	0.541
68.500	127.372	80.000	19.995	103.500	19.951	6.595	0.578
69.000	127.654	79.999	19.995	103.500	19.948	6.806	0.605
69.500	127.980	79.999	19.994	103.501	19.951	6.534	0.604
70.001	128.242	80.000	19.995	103.501	19.949	6.722	0.597
70.501	128.558	79.999	19.995	103.500	19.949	6.727	0.583
71.000	128.867	79.999	19.994	103.500	19.949	6.707	0.602
71.500	129.179	79.999	19.996	103.499	19.949	6.723	0.623
72.000	129.500	79.998	19.995	103.499	19.946	6.965	0.627
72.500	129.762	79.999	19.995	103.498	19.949	6.717	0.608
73.000	130.098	80.000	19.996	103.498	19.949	6.736	0.591
73.500	130.450	79.999	19.994	103.496	19.948	6.817	0.643
74.000	130.725	79.998	19.994	103.491	19.948	6.789	0.657
74.500	131.055	80.000	19.996	103.490	19.948	6.791	0.616
75.000	131.378	79.999	19.995	103.490	19.946	6.958	0.629
75.500	131.724	80.001	19.995	103.490	19.947	6.890	0.660
76.001	132.079	80.000	19.995	103.492	19.947	6.855	0.685
76.501	132.407	80.001	19.995	103.499	19.944	7.101	0.692
77.001	132.709	80.001	19.994	103.502	19.952	6.532	0.656
77.500	133.091	80.001	19.994	103.504	19.949	6.720	0.656
78.000	133.395	80.001	19.994	103.503	19.947	6.902	0.685
78.500	133.736	80.002	19.995	103.505	19.948	6.806	0.666
79.000	134.094	80.001	19.995	103.505	19.944	7.102	0.672
79.500	134.418	80.003	19.995	103.502	19.948	6.819	0.691
80.000	134.763	80.003	19.994	103.500	19.943	7.232	0.675
80.500	135.109	80.002	19.995	103.494	19.944	7.153	0.680
81.000	135.453	80.002	19.994	103.491	19.944	7.123	0.691
81.500	135.792	80.002	19.995	103.490	19.946	6.976	0.687
82.000	136.166	80.002	19.995	103.490	19.945	7.078	0.698
82.500	136.514	80.002	19.994	103.491	19.945	7.021	0.718
83.000	136.867	80.003	19.994	103.498	19.943	7.160	0.712
83.500	137.230	80.003	19.995	103.498	19.945	7.076	0.709
84.000	137.594	80.003	19.993	103.494	19.943	7.190	0.721
84.500	137.947	80.002	19.995	103.494	19.947	6.879	0.722
85.000	138.311	80.002	19.995	103.494	19.943	7.173	0.717
85.500	138.630	80.002	19.995	103.493	19.946	6.961	0.700
86.000	139.008	80.002	19.996	103.494	19.945	7.044	0.690
86.501	139.415	80.003	19.995	103.496	19.945	7.012	0.741
87.001	139.799	80.002	19.995	103.491	19.945	7.006	0.788
87.500	140.122	80.002	19.996	103.488	19.946	6.993	0.750
88.000	140.541	80.002	19.996	103.489	19.945	7.036	0.725
88.500	140.887	80.003	19.996	103.489	19.945	7.018	0.754
89.000	141.265	80.001	19.996	103.492	19.946	6.959	0.745
89.500	141.639	80.002	19.996	103.498	19.943	7.215	0.738
90.000	142.035	80.001	19.997	103.502	19.944	7.138	0.761
90.500	142.409	80.001	19.997	103.502	19.948	6.811	0.770
91.000	142.834	80.001	19.996	103.502	19.948	6.841	0.784
91.500	143.207	80.001	19.996	103.501	19.944	7.102	0.799
92.000	143.525	80.002	19.996	103.501	19.944	7.119	0.745
92.500	143.944	80.002	19.995	103.502	19.946	6.935	0.714
93.000	144.381	80.002	19.997	103.502	19.948	6.826	0.797
93.500	144.761	80.001	19.996	103.502	19.949	6.723	0.836
94.000	145.136	80.001	19.996	103.503	19.946	6.969	0.786
94.500	145.514	80.001	19.996	103.503	19.945	7.068	0.754
95.001	145.895	80.001	19.996	103.502	19.947	6.913	0.756
95.501	146.308	80.000	19.996	103.502	19.945	7.010	0.776
96.001	146.706	80.001	19.995	103.501	19.945	7.044	0.803
96.500	147.154	80.001	19.995	103.502	19.945	7.041	0.829
97.000	147.535	80.002	19.997	103.501	19.943	7.166	0.837
97.500	147.926	80.002	19.996	103.501	19.947	6.877	0.800
98.000	148.362	80.002	19.996	103.501	19.943	7.215	0.800
98.501	148.777	80.004	19.996	103.501	19.944	7.106	0.839
99.001	149.134	80.001	19.996	103.501	19.948	6.827	0.811
99.500	149.616	80.002	19.996	103.501	19.945	7.026	0.806
100.000	149.986	80.003	19.995	103.501	19.945	7.024	0.846
100.501	150.417	80.001	19.995	103.501	19.946	6.981	0.826
101.001	150.823	80.002	19.996	103.501	19.945	7.048	0.819
101.500	151.238	80.002	19.995	103.500	19.944	7.123	0.829
102.000	151.650	80.001	19.996	103.499	19.946	6.981	0.824
102.500	152.105	80.003	19.995	103.498	19.945	7.054	0.847
103.000	152.462	80.002	19.995	103.499	19.943	7.186	0.840
103.500	152.951	80.002	19.996	103.500	19.946	6.998	0.829
104.000	153.372	80.003	19.995	103.500	19.945	7.033	0.878
104.500	153.764	80.002	19.995	103.502	19.946	6.973	0.862
105.000	154.185	80.003	19.996	103.502	19.946	6.956	0.813
105.500	154.615	80.005	19.996	103.502	19.947	6.917	0.833
106.000	155.018	80.003	19.995	103.498	19.948	6.797	0.842
106.500	155.473	80.005	19.995	103.497	19.946	6.977	0.845
107.000	155.885	80.004	19.994	103.496	19.947	6.853	0.862
107.501	156.303	80.002	19.997	103.494	19.948	6.809	0.848
108.001	156.741	80.004	19.995	103.494	19.947	6.849	0.843
108.500	157.163	80.001	19.996	103.497	19.946	6.956	0.858
109.000	157.589	80.002	19.995	103.496	19.945	7.072	0.854
109.501	158.010	80.003	19.994	103.492	19.947	6.847	0.847
110.001	158.441	80.003	19.994	103.489	19.946	6.969	0.849
110.500	158.915	80.003	19.994	103.488	19.946	6.932	0.879
111.000	159.327	80.003	19.996	103.488	19.948	6.774	0.895
111.500	159.792	80.002	19.995	103.488	19.947	6.919	0.881
112.000	160.217	80.003	19.995	103.492	19.943	7.180	0.884
112.500	160.667	80.002	19.996	103.491	19.948	6.845	0.883
113.000	161.075	80.002	19.996	103.487	19.946	6.956	0.867
113.500	161.546	80.000	19.996	103.485	19.947	6.864	0.869
114.000	162.014	80.001	19.996	103.486	19.950	6.656	0.909
114.500	162.434	80.001	19.995	103.486	19.947	6.878	0.913
115.000	162.843	79.999	19.994	103.492	19.947	6.910	0.858
115.500	163.307	79.999	19.996	103.496	19.946	6.965	0.851
116.000	163.785	80.000	19.997	103.493	19.946	6.961	0.907
116.500	164.216	79.999	19.996	103.491	19.948	6.828	0.926
117.001	164.650	80.000	19.997	103.492	19.946	6.983	0.887
117.501	165.160	79.999	19.996	103.491	19.946	6.944	0.904
118.000	165.616	80.000	19.996	103.494	19.950	6.685	0.955
118.500	166.103	79.998	19.996	103.499	19.946	6.970	0.954
119.000	166.536	79.999	19.996	103.500	19.945	7.025	0.932
119.500	167.009	79.999	19.997	103.500	19.946	6.993	0.913
120.000	167.439	80.000	19.998	103.500	19.946	6.948	0.904
120.501	167.905	79.998	19.996	103.498	19.947	6.845	0.900
121.001	168.390	79.999	19.996	103.492	19.945	7.033	0.923
121.500	168.872	79.999	19.997	103.489	19.949	6.753	0.958
122.000	169.325	79.999	19.996	103.488	19.948	6.841	0.951
122.500	169.792	80.000	19.996	103.483	19.949	6.736	0.928
123.001	170.231	79.999	19.997	103.485	19.947	6.849	0.913
123.501	170.710	80.000	19.996	103.493	19.945	7.063	0.912
124.000	171.196	80.000	19.996	103.494	19.946	6.980	0.941
124.500	171.631	80.000	19.996	103.491	19.948	6.768	0.943
125.000	172.142	79.999	19.997	103.489	19.945	7.036	0.934
125.500	172.580	80.000	19.996	103.483	19.947	6.850	0.948
126.000	173.057	79.999	19.996	103.476	19.948	6.792	0.932
126.501	173.562	80.000	19.997	103.470	19.947	6.845	0.948
127.001	174.020	79.999	19.997	103.470	19.947	6.854	0.972
127.500	174.464	80.000	19.996	103.474	19.948	6.783	0.932
128.000	174.971	80.000	19.995	103.479	19.947	6.860	0.927
128.500	175.415	79.998	19.996	103.480	19.946	6.928	0.951
129.000	175.895	80.000	19.996	103.481	19.946	6.990	0.938
129.500	176.394	80.000	19.996	103.480	19.945	7.016	0.952
130.000	176.826	80.000	19.996	103.476	19.949	6.725	0.956
130.500	177.315	80.000	19.996	103.470	19.945	7.052	0.926
131.000	177.812	80.001	19.996	103.471	19.948	6.843	0.953
131.500	178.306	80.000	19.997	103.471	19.948	6.819	0.988
132.000	178.800	79.999	19.997	103.471	19.949	6.712	0.990
132.500	179.283	80.001	19.996	103.470	19.950	6.642	0.983
133.000	179.762	79.999	19.995	103.470	19.949	6.708	0.970
133.501	180.215	80.000	19.997	103.468	19.951	6.588	0.947
134.000	180.739	80.000	19.995	103.467	19.950	6.644	0.954
134.500	181.227	80.001	19.994	103.466	19.951	6.558	0.995
135.000	181.723	80.000	19.995	103.466	19.949	6.723	0.998
135.500	182.220	80.000	19.994	103.467	19.953	6.428	0.988
136.000	182.698	80.001	19.995	103.471	19.949	6.693	0.984
136.500	183.193	80.000	19.996	103.471	19.949	6.761	0.974
137.000	183.654	80.000	19.995	103.472	19.948	6.780	0.964
137.500	184.143	79.999	19.995	103.472	19.951	6.575	0.953
138.000	184.635	79.999	19.994	103.470	19.952	6.517	0.966
138.500	185.153	79.999	19.995	103.467	19.948	6.784	0.995
139.000	185.657	80.002	19.995	103.466	19.950	6.616	1.016
139.500	186.142	80.000	19.995	103.466	19.952	6.468	1.006
140.000	186.703	80.000	19.995	103.466	19.950	6.669	1.017
140.500	187.154	79.999	19.995	103.466	19.949	6.748	1.029
141.000	187.663	79.999	19.995	103.466	19.953	6.395	0.986
141.500	188.169	80.000	19.994	103.466	19.946	6.936	0.988
142.000	188.656	79.999	19.994	103.466	19.951	6.562	1.004
142.500	189.170	80.000	19.995	103.466	19.947	6.871	0.997
143.000	189.665	79.999	19.995	103.466	19.949	6.750	1.005
143.500	190.150	80.000	19.995	103.466	19.949	6.696	0.995
144.000	190.673	80.000	19.996	103.466	19.950	6.647	0.994
144.500	191.136	79.999	19.994	103.466	19.948	6.780	0.997
145.000	191.645	80.000	19.995	103.466	19.948	6.825	0.979
145.500	192.164	80.000	19.995	103.466	19.951	6.551	0.999
146.000	192.634	80.000	19.996	103.466	19.950	6.630	1.009
146.500	193.179	80.001	19.996	103.465	19.951	6.548	1.002
147.000	193.692	80.001	19.995	103.464	19.952	6.454	1.036
147.500	194.174	79.999	19.995	103.461	19.949	6.723	1.027
148.001	194.696	80.000	19.996	103.459	19.953	6.452	1.000
148.500	195.219	80.000	19.996	103.458	19.951	6.548	1.024
149.000	195.694	79.999	19.995	103.458	19.949	6.691	1.021
149.500	196.190	80.000	19.996	103.458	19.951	6.574	0.985
150.000	196.708	80.000	19.996	103.460	19.950	6.627	0.992
150.500	197.216	80.000	19.995	103.461	19.951	6.539	1.020
151.001	197.702	80.000	19.995	103.461	19.954	6.306	1.010
151.501	198.211	79.999	19.995	103.457	19.956	6.208	0.995
152.000	198.715	80.002	19.994	103.456	19.953	6.413	1.004
152.500	199.256	80.001	19.996	103.456	19.953	6.396	1.029
153.000	199.752	80.001	19.995	103.453	19.954	6.363	1.041
153.500	200.243	80.001	19.995	103.446	19.953	6.379	1.012
154.000	200.799	80.000	19.996	103.446	19.957	6.065	1.017
154.500	201.274	80.002	19.995	103.446	19.955	6.251	1.038
155.000	201.814	80.001	19.995	103.447	19.953	6.379	1.023
155.500	202.267	80.000	19.995	103.448	19.956	6.206	1.004
156.000	202.815	80.002	19.995	103.451	19.957	6.130	0.997
156.500	203.288	80.001	19.995	103.448	19.956	6.175	1.011
157.000	203.799	80.001	19.995	103.445	19.954	6.308	1.002
157.500	204.324	80.001	19.995	103.442	19.956	6.196	1.010
158.001	204.870	80.001	19.995	103.438	19.957	6.122	1.054
158.501	205.340	80.002	19.995	103.438	19.955	6.226	1.044
159.000	205.844	80.002	19.995	103.444	19.955	6.233	0.995
159.500	206.396	80.001	19.995	103.443	19.956	6.177	1.015
160.000	206.945	80.001	19.996	103.442	19.958	6.034	1.079
160.500	207.445	80.001	19.995	103.445	19.953	6.397	1.075
161.000	207.986	80.001	19.995	103.441	19.954	6.363	1.045
161.501	208.480	80.002	19.994	103.438	19.956	6.143	1.038
162.001	209.017	80.002	19.995	103.438	19.956	6.213	1.033
162.501	209.508	80.002	19.994	103.434	19.955	6.232	1.029
163.000	210.013	80.004	19.996	103.430	19.955	6.294	1.012
163.500	210.598	80.003	19.995	103.429	19.955	6.292	1.043
164.000	211.069	80.003	19.995	103.427	19.954	6.339	1.073
164.500	211.597	80.003	19.994	103.432	19.957	6.133	1.028
165.000	212.132	80.001	19.995	103.438	19.955	6.221	1.031
165.500	212.643	80.001	19.996	103.438	19.955	6.251	1.054
166.000	213.173	80.002	19.994	103.438	19.954	6.341	1.044
166.500	213.695	80.003	19.995	103.436	19.955	6.241	1.047
167.000	214.213	80.002	19.994	103.430	19.957	6.134	1.046
167.501	214.758	80.002	19.994	103.425	19.959	5.969	1.051
168.000	215.264	80.001	19.994	103.424	19.957	6.108	1.056
168.500	215.775	80.002	19.995	103.424	19.956	6.179	1.034
169.001	216.284	80.002	19.995	103.423	19.958	5.990	1.019
169.500	216.826	80.003	19.995	103.423	19.956	6.142	1.036
170.000	217.347	80.002	19.996	103.423	19.954	6.343	1.057
170.500	217.853	80.001	19.995	103.422	19.957	6.076	1.045
171.000	218.410	80.001	19.994	103.423	19.957	6.127	1.045
171.500	218.914	80.002	19.994	103.423	19.954	6.351	1.062
172.000	219.421	80.002	19.995	103.423	19.956	6.184	1.036
172.500	219.935	80.002	19.996	103.422	19.955	6.270	1.016
