Sample ID:	C:\MCC\MCC Cal\Test\Nylon_Carpet_HighPile_MCC_30K_min_211028_R3.txt
Sample Weight (mg):	4.37
Heating Rate (C/s):	0.5
Combustor Temp (C):	900
N2 Flow Rate (cc/min):	80
O2 Flow Rate (cc/min):	20
Calibration File:	C:\MCC\MCC Cal\Coeff1 JN10440_30_210304.txt.txt
T Correction Coefficients:	0	1.024463	0
Time Shift (s):	14
*
Time (s)	Temperature (C)	N2 flow rate (cc/min)	O2 flow rate (cc/min)	Flow Rate (cc/min)	Oxygen (%)	HRR (W/g)	Heating rate (C/s)
0.000	107.488	79.997	19.997	102.928	20.061	-0.010	-0.005
0.500	107.490	79.997	19.996	102.926	20.060	0.065	0.047
1.000	107.455	79.997	19.996	102.927	20.061	0.028	0.020
1.500	107.433	79.997	19.995	102.926	20.064	-0.213	-0.045
2.000	107.442	79.997	19.996	102.925	20.063	-0.152	-0.035
2.500	107.449	79.997	19.996	102.925	20.062	-0.099	0.002
3.000	107.489	79.997	19.996	102.924	20.063	-0.164	0.032
3.500	107.461	79.997	19.996	102.924	20.062	-0.049	0.030
4.000	107.436	79.997	19.996	102.925	20.063	-0.144	-0.021
4.500	107.490	79.997	19.997	102.925	20.061	-0.018	-0.012
5.000	107.449	79.996	19.994	102.924	20.064	-0.199	0.021
5.500	107.492	79.997	19.997	102.924	20.067	-0.413	0.007
6.000	107.453	79.997	19.999	102.931	20.063	-0.124	0.003
6.500	107.447	79.998	19.997	102.931	20.062	-0.103	-0.020
7.000	107.432	79.997	19.998	102.931	20.063	-0.140	-0.032
7.500	107.452	79.997	19.997	102.931	20.060	0.045	-0.008
8.000	107.439	79.997	19.995	102.931	20.063	-0.166	0.006
8.500	107.415	79.997	19.997	102.924	20.064	-0.201	-0.015
9.000	107.445	79.998	19.996	102.924	20.063	-0.144	-0.015
9.500	107.476	79.997	19.997	102.925	20.065	-0.298	0.033
10.000	107.451	79.999	19.996	102.925	20.061	-0.014	0.033
10.500	107.490	79.999	19.997	102.928	20.064	-0.227	0.010
11.000	107.496	79.997	19.996	102.928	20.064	-0.243	0.030
11.500	107.445	79.999	19.996	102.928	20.063	-0.148	-0.000
12.000	107.475	79.999	19.995	102.927	20.065	-0.282	-0.033
12.500	107.484	79.997	19.996	102.926	20.066	-0.383	0.009
13.000	107.455	79.998	19.995	102.924	20.066	-0.349	0.010
13.500	107.456	79.998	19.996	102.925	20.067	-0.434	-0.023
14.000	107.471	79.998	19.996	102.925	20.066	-0.363	-0.006
14.500	107.435	79.999	19.996	102.924	20.065	-0.310	-0.003
15.000	107.445	80.001	19.995	102.928	20.062	-0.075	-0.024
15.500	107.450	80.000	19.995	102.931	20.063	-0.160	-0.006
16.000	107.481	79.999	19.995	102.934	20.064	-0.243	0.025
16.500	107.440	79.999	19.996	102.937	20.063	-0.156	0.013
17.000	107.474	79.999	19.996	102.938	20.062	-0.055	-0.008
17.500	107.442	80.000	19.996	102.938	20.063	-0.114	-0.003
18.000	107.449	80.001	19.996	102.938	20.064	-0.183	-0.012
18.500	107.443	80.001	19.996	102.937	20.062	-0.047	-0.012
19.000	107.432	80.000	19.995	102.933	20.058	0.223	-0.008
19.500	107.433	79.999	19.994	102.933	20.061	-0.016	-0.013
20.000	107.455	79.999	19.995	102.934	20.063	-0.177	0.007
20.500	107.442	80.001	19.996	102.937	20.063	-0.118	0.016
21.000	107.476	79.999	19.995	102.942	20.060	0.091	0.014
21.500	107.457	80.001	19.995	102.949	20.060	0.081	0.017
22.000	107.456	80.000	19.995	102.957	20.060	0.073	-0.002
22.500	107.451	79.999	19.995	102.960	20.061	0.010	-0.013
23.000	107.443	80.000	19.996	102.959	20.061	0.014	-0.010
23.500	107.466	79.998	19.995	102.955	20.059	0.158	0.001
24.000	107.454	79.999	19.996	102.955	20.056	0.363	0.013
24.500	107.440	79.999	19.998	102.957	20.058	0.264	-0.008
25.000	107.456	79.998	19.996	102.958	20.058	0.219	-0.012
25.500	107.472	79.999	19.998	102.938	20.055	0.426	0.017
26.000	107.485	79.998	19.997	102.920	20.055	0.479	0.031
26.500	107.435	79.997	19.999	102.907	20.057	0.321	-0.005
27.000	107.473	79.997	19.998	102.900	20.056	0.351	-0.025
27.500	107.510	79.996	19.997	102.900	20.055	0.443	0.032
28.000	107.481	79.996	19.996	102.932	20.054	0.550	0.042
28.500	107.490	79.996	19.997	102.994	20.055	0.477	-0.006
29.000	107.506	79.997	19.996	103.037	20.052	0.690	0.003
29.500	107.498	79.996	19.996	103.059	20.054	0.508	0.016
30.000	107.524	79.996	19.997	103.074	20.052	0.698	0.012
30.500	107.520	79.995	19.997	103.081	20.050	0.843	0.020
31.000	107.549	79.998	19.996	103.060	20.050	0.843	0.024
31.500	107.558	79.996	19.998	103.054	20.045	1.160	0.032
32.000	107.574	79.995	19.997	103.060	20.048	0.928	0.031
32.500	107.585	79.996	19.997	103.066	20.043	1.318	0.026
33.000	107.623	79.998	19.997	103.074	20.042	1.373	0.038
33.500	107.611	79.996	19.998	103.080	20.041	1.452	0.038
34.000	107.636	79.996	19.997	103.086	20.041	1.472	0.020
34.500	107.686	79.997	19.997	103.091	20.042	1.375	0.044
35.000	107.700	79.997	19.997	103.099	20.040	1.570	0.070
35.500	107.739	79.996	19.996	103.105	20.039	1.602	0.058
36.000	107.797	79.996	19.996	103.111	20.037	1.783	0.075
36.500	107.823	79.997	19.996	103.114	20.039	1.641	0.091
37.001	107.847	79.996	19.997	103.117	20.035	1.901	0.067
37.501	107.913	79.996	19.996	103.119	20.035	1.917	0.069
38.000	107.955	79.997	19.997	103.122	20.037	1.806	0.099
38.500	107.984	79.998	19.996	103.123	20.033	2.094	0.090
39.000	108.031	79.997	19.996	103.123	20.031	2.198	0.074
39.500	108.078	79.996	19.996	103.125	20.031	2.179	0.085
40.000	108.108	79.997	19.996	103.125	20.029	2.399	0.085
40.500	108.178	79.999	19.996	103.125	20.031	2.250	0.088
41.000	108.232	79.996	19.997	103.128	20.032	2.159	0.112
41.500	108.291	79.997	19.996	103.133	20.028	2.449	0.119
42.000	108.341	79.997	19.996	103.140	20.026	2.551	0.112
42.500	108.420	79.997	19.995	103.148	20.027	2.537	0.119
43.000	108.463	79.996	19.996	103.153	20.025	2.667	0.125
43.500	108.539	79.997	19.996	103.158	20.025	2.644	0.121
44.000	108.581	79.997	19.996	103.158	20.023	2.817	0.119
44.500	108.660	79.997	19.996	103.158	20.027	2.484	0.119
45.000	108.773	79.999	19.996	103.157	20.025	2.684	0.156
45.500	108.838	79.998	19.995	103.158	20.023	2.775	0.185
46.000	108.940	79.996	19.996	103.159	20.025	2.690	0.172
46.500	108.998	79.997	19.995	103.161	20.023	2.779	0.163
47.000	109.075	79.999	19.995	103.161	20.025	2.631	0.148
47.500	109.151	79.999	19.995	103.159	20.022	2.910	0.144
48.000	109.250	79.999	19.995	103.159	20.022	2.881	0.164
48.500	109.315	79.998	19.995	103.160	20.019	3.115	0.169
49.000	109.414	79.998	19.995	103.160	20.021	2.920	0.164
49.500	109.499	79.999	19.996	103.162	20.021	2.968	0.174
50.001	109.613	79.997	19.995	103.164	20.017	3.241	0.192
50.501	109.701	79.999	19.995	103.164	20.020	3.064	0.200
51.000	109.783	79.999	19.996	103.163	20.022	2.887	0.186
51.500	109.873	79.996	19.995	103.163	20.019	3.092	0.171
52.000	109.981	79.997	19.995	103.162	20.020	2.995	0.185
52.500	110.050	79.997	19.995	103.162	20.017	3.243	0.187
53.000	110.168	79.998	19.995	103.162	20.018	3.188	0.182
53.500	110.261	79.996	19.994	103.163	20.020	3.009	0.199
54.000	110.378	79.999	19.994	103.164	20.020	3.050	0.211
54.500	110.495	79.997	19.995	103.164	20.021	2.924	0.222
55.000	110.563	79.998	19.994	103.169	20.020	3.005	0.210
55.500	110.675	79.997	19.996	103.175	20.021	2.938	0.183
56.000	110.788	79.998	19.996	103.180	20.019	3.096	0.202
56.500	110.925	79.998	19.995	103.186	20.018	3.141	0.237
57.000	111.028	79.997	19.997	103.194	20.018	3.178	0.245
57.500	111.123	79.997	19.996	103.197	20.020	3.025	0.219
58.000	111.272	79.998	19.997	103.197	20.017	3.218	0.221
58.500	111.375	79.997	19.995	103.198	20.019	3.080	0.248
59.000	111.488	79.998	19.995	103.198	20.017	3.218	0.234
59.500	111.636	79.997	19.995	103.197	20.017	3.220	0.239
60.000	111.734	79.997	19.996	103.196	20.017	3.253	0.254
60.500	111.870	79.998	19.997	103.196	20.018	3.200	0.240
61.000	111.986	79.997	19.997	103.196	20.016	3.304	0.243
61.500	112.124	79.999	19.995	103.197	20.015	3.365	0.253
62.000	112.248	79.995	19.996	103.197	20.017	3.273	0.258
62.500	112.412	79.996	19.996	103.198	20.018	3.188	0.275
63.000	112.500	79.997	19.995	103.198	20.017	3.281	0.270
63.500	112.615	79.996	19.996	103.197	20.014	3.442	0.228
64.000	112.786	79.998	19.995	103.197	20.015	3.375	0.244
64.500	112.918	79.997	19.996	103.197	20.016	3.328	0.295
65.000	113.086	79.996	19.996	103.197	20.015	3.381	0.302
65.501	113.245	79.997	19.995	103.197	20.017	3.261	0.313
66.001	113.365	79.997	19.995	103.197	20.015	3.411	0.303
66.500	113.529	79.998	19.996	103.199	20.015	3.393	0.281
67.000	113.688	79.996	19.996	103.199	20.016	3.328	0.304
67.500	113.809	79.999	19.996	103.199	20.016	3.310	0.302
68.001	113.984	79.999	19.995	103.199	20.015	3.379	0.288
68.501	114.188	79.998	19.996	103.199	20.016	3.324	0.337
69.000	114.286	79.997	19.996	103.197	20.015	3.419	0.340
69.500	114.462	79.998	19.995	103.197	20.013	3.507	0.288
70.000	114.620	79.998	19.996	103.197	20.019	3.135	0.304
70.500	114.772	80.000	19.994	103.196	20.019	3.107	0.322
71.000	114.924	79.999	19.996	103.197	20.018	3.178	0.307
71.500	115.103	79.999	19.994	103.197	20.017	3.241	0.318
72.000	115.245	80.001	19.994	103.198	20.021	2.946	0.326
72.500	115.420	79.997	19.995	103.199	20.017	3.226	0.319
73.000	115.590	80.000	19.996	103.200	20.018	3.174	0.331
73.500	115.772	79.999	19.994	103.200	20.018	3.180	0.349
74.000	115.943	79.998	19.995	103.199	20.019	3.080	0.353
74.500	116.095	80.002	19.995	103.197	20.017	3.275	0.338
75.000	116.256	80.000	19.995	103.196	20.018	3.192	0.318
75.500	116.382	80.001	19.996	103.195	20.015	3.403	0.300
76.000	116.578	80.000	19.994	103.195	20.018	3.164	0.305
76.500	116.769	80.001	19.994	103.195	20.018	3.154	0.355
77.000	116.910	80.000	19.995	103.197	20.018	3.204	0.359
77.500	117.084	80.001	19.995	103.197	20.018	3.172	0.323
78.000	117.241	79.999	19.994	103.197	20.017	3.231	0.323
78.500	117.456	79.999	19.995	103.198	20.018	3.190	0.352
79.000	117.598	80.000	19.995	103.198	20.017	3.225	0.365
79.500	117.800	79.999	19.995	103.197	20.015	3.426	0.351
80.000	117.974	79.999	19.994	103.196	20.013	3.522	0.360
80.500	118.128	80.000	19.995	103.196	20.016	3.353	0.352
81.000	118.364	79.998	19.995	103.196	20.016	3.315	0.359
81.500	118.503	80.000	19.995	103.196	20.018	3.146	0.382
82.000	118.703	79.998	19.995	103.196	20.017	3.227	0.357
82.500	118.901	79.999	19.995	103.197	20.014	3.436	0.369
83.000	119.046	79.999	19.995	103.197	20.016	3.292	0.371
83.500	119.255	79.998	19.995	103.197	20.016	3.353	0.348
84.000	119.471	79.998	19.996	103.199	20.014	3.501	0.389
84.500	119.657	79.998	19.995	103.201	20.018	3.149	0.414
85.000	119.851	79.997	19.996	103.201	20.016	3.316	0.391
85.500	120.041	80.000	19.995	103.202	20.014	3.452	0.382
86.000	120.231	80.000	19.995	103.203	20.010	3.743	0.382
86.500	120.399	79.998	19.995	103.204	20.012	3.637	0.369
87.000	120.617	80.000	19.995	103.204	20.009	3.844	0.372
87.500	120.809	79.998	19.996	103.208	20.011	3.694	0.398
88.000	120.993	79.997	19.994	103.209	20.012	3.587	0.393
88.501	121.179	79.999	19.995	103.212	20.010	3.755	0.373
89.001	121.398	79.998	19.995	103.214	20.009	3.875	0.387
89.500	121.576	79.998	19.996	103.215	20.011	3.656	0.401
90.000	121.782	79.998	19.996	103.218	20.008	3.903	0.391
90.500	121.959	79.996	19.996	103.223	20.011	3.655	0.383
91.000	122.183	79.998	19.996	103.225	20.010	3.763	0.392
91.500	122.366	79.998	19.995	103.223	20.011	3.706	0.404
92.000	122.593	79.997	19.997	103.220	20.011	3.674	0.409
92.500	122.813	79.997	19.996	103.215	20.009	3.816	0.429
93.000	122.956	79.999	19.995	103.209	20.009	3.867	0.405
93.500	123.180	79.999	19.995	103.206	20.012	3.647	0.364
94.000	123.395	79.999	19.995	103.207	20.011	3.657	0.403
94.500	123.578	79.999	19.995	103.207	20.010	3.783	0.419
95.000	123.784	79.999	19.996	103.206	20.011	3.688	0.394
95.500	124.026	80.000	19.996	103.205	20.013	3.519	0.418
96.000	124.198	79.998	19.995	103.203	20.010	3.761	0.431
96.500	124.428	79.998	19.996	103.201	20.010	3.775	0.408
97.000	124.620	79.999	19.995	103.200	20.010	3.749	0.412
97.500	124.831	79.999	19.995	103.200	20.014	3.505	0.412
98.000	125.045	80.001	19.996	103.203	20.014	3.491	0.414
98.501	125.281	80.000	19.995	103.207	20.011	3.726	0.438
99.001	125.504	80.001	19.996	103.211	20.014	3.501	0.454
99.500	125.726	80.000	19.995	103.212	20.014	3.440	0.452
100.000	125.909	80.001	19.996	103.212	20.012	3.609	0.425
100.500	126.105	80.000	19.995	103.209	20.012	3.643	0.392
101.000	126.341	79.999	19.995	103.204	20.014	3.470	0.405
101.500	126.544	79.999	19.995	103.201	20.014	3.493	0.435
102.000	126.779	79.999	19.996	103.204	20.013	3.525	0.438
102.500	126.959	80.000	19.996	103.203	20.013	3.517	0.427
103.000	127.172	79.999	19.995	103.205	20.013	3.525	0.404
103.500	127.413	79.999	19.995	103.206	20.013	3.556	0.423
104.000	127.613	79.999	19.995	103.205	20.013	3.570	0.447
104.500	127.854	79.999	19.995	103.201	20.012	3.611	0.441
105.000	128.056	79.999	19.995	103.200	20.013	3.574	0.442
105.500	128.293	79.999	19.994	103.199	20.013	3.550	0.441
106.000	128.510	79.997	19.995	103.199	20.014	3.495	0.446
106.500	128.737	79.997	19.995	103.199	20.013	3.509	0.449
107.000	128.971	79.998	19.995	103.200	20.011	3.696	0.453
107.500	129.222	79.997	19.995	103.201	20.012	3.598	0.473
108.000	129.439	79.998	19.995	103.201	20.010	3.775	0.476
108.500	129.659	79.997	19.995	103.201	20.013	3.523	0.453
109.000	129.861	79.997	19.996	103.201	20.013	3.556	0.430
109.500	130.109	79.999	19.995	103.201	20.013	3.545	0.436
110.000	130.306	79.997	19.995	103.201	20.012	3.635	0.448
110.500	130.547	79.997	19.996	103.201	20.013	3.572	0.441
111.000	130.762	79.996	19.994	103.200	20.011	3.710	0.446
111.500	130.999	79.997	19.996	103.201	20.013	3.513	0.454
112.000	131.248	79.998	19.995	103.201	20.014	3.499	0.469
112.500	131.496	79.997	19.996	103.200	20.015	3.413	0.492
113.000	131.689	79.996	19.995	103.200	20.016	3.314	0.469
113.500	131.960	79.999	19.995	103.200	20.015	3.373	0.452
114.000	132.167	79.995	19.995	103.200	20.016	3.314	0.471
114.500	132.413	79.996	19.996	103.200	20.015	3.371	0.466
115.000	132.630	79.997	19.995	103.200	20.013	3.533	0.458
115.500	132.876	79.996	19.996	103.200	20.012	3.600	0.463
116.000	133.071	79.995	19.996	103.199	20.017	3.222	0.452
116.500	133.316	79.994	19.996	103.198	20.017	3.239	0.440
117.000	133.559	79.995	19.997	103.197	20.016	3.344	0.464
117.500	133.768	79.996	19.996	103.197	20.016	3.298	0.470
118.000	134.012	79.997	19.996	103.197	20.017	3.216	0.453
118.500	134.260	79.997	19.996	103.198	20.015	3.399	0.473
119.000	134.504	79.997	19.996	103.198	20.017	3.224	0.492
119.500	134.690	79.995	19.997	103.198	20.019	3.133	0.461
120.000	134.958	79.997	19.996	103.198	20.019	3.111	0.442
120.500	135.207	79.997	19.996	103.197	20.017	3.212	0.485
121.000	135.402	79.997	19.996	103.196	20.017	3.271	0.480
121.501	135.646	79.996	19.997	103.196	20.015	3.369	0.441
122.001	135.847	79.997	19.996	103.195	20.016	3.306	0.442
122.501	136.083	79.996	19.996	103.195	20.017	3.251	0.441
123.001	136.306	79.998	19.996	103.195	20.020	3.001	0.448
123.500	136.528	79.996	19.997	103.195	20.018	3.163	0.452
124.000	136.782	79.996	19.998	103.195	20.021	2.946	0.461
124.500	137.010	79.997	19.997	103.195	20.021	2.948	0.479
125.000	137.262	79.997	19.996	103.195	20.020	3.023	0.481
125.500	137.496	79.997	19.996	103.195	20.022	2.903	0.483
126.000	137.727	79.996	19.995	103.195	20.019	3.107	0.476
126.500	138.010	79.998	19.996	103.196	20.022	2.885	0.489
127.001	138.283	79.997	19.997	103.196	20.021	2.976	0.535
127.501	138.503	79.997	19.996	103.196	20.018	3.192	0.525
128.000	138.710	79.996	19.997	103.197	20.021	2.972	0.460
128.500	138.985	79.997	19.997	103.197	20.017	3.281	0.455
129.000	139.220	79.997	19.996	103.195	20.019	3.107	0.496
129.500	139.455	79.996	19.996	103.195	20.019	3.088	0.490
130.000	139.715	79.998	19.996	103.195	20.017	3.273	0.482
130.500	139.906	79.998	19.995	103.194	20.017	3.279	0.473
131.000	140.162	79.997	19.995	103.194	20.018	3.170	0.449
131.500	140.410	79.999	19.995	103.193	20.017	3.277	0.476
132.000	140.653	79.997	19.996	103.194	20.018	3.161	0.498
132.501	140.884	79.997	19.995	103.194	20.016	3.310	0.483
133.000	141.143	79.999	19.995	103.194	20.016	3.322	0.482
133.500	141.349	79.997	19.995	103.194	20.014	3.458	0.477
134.000	141.638	79.997	19.996	103.195	20.020	3.029	0.480
134.500	141.844	79.997	19.995	103.195	20.017	3.269	0.495
135.000	142.096	79.998	19.995	103.195	20.018	3.182	0.476
135.500	142.344	79.997	19.995	103.196	20.019	3.135	0.479
136.000	142.577	79.998	19.995	103.196	20.018	3.155	0.491
136.500	142.844	79.998	19.995	103.196	20.017	3.275	0.490
137.000	143.087	79.998	19.995	103.196	20.021	2.936	0.505
137.500	143.335	79.998	19.995	103.196	20.018	3.165	0.501
138.000	143.583	79.996	19.995	103.196	20.018	3.157	0.494
138.500	143.836	79.996	19.995	103.196	20.019	3.068	0.499
139.000	144.081	79.996	19.994	103.196	20.020	3.039	0.500
139.500	144.332	79.997	19.995	103.196	20.017	3.261	0.497
140.000	144.538	79.997	19.995	103.196	20.016	3.291	0.476
140.500	144.798	79.997	19.996	103.195	20.020	3.013	0.461
141.000	145.061	79.997	19.995	103.196	20.021	2.976	0.494
141.500	145.309	79.996	19.996	103.196	20.018	3.143	0.517
142.000	145.546	79.996	19.996	103.196	20.018	3.177	0.498
142.500	145.761	79.998	19.995	103.194	20.022	2.915	0.469
143.000	146.024	79.996	19.996	103.195	20.021	2.964	0.465
143.500	146.244	79.996	19.995	103.194	20.020	3.009	0.480
144.000	146.512	79.997	19.996	103.194	20.021	2.936	0.485
144.500	146.710	79.997	19.995	103.195	20.021	2.952	0.477
145.000	146.975	79.997	19.995	103.197	20.022	2.889	0.464
145.500	147.235	79.997	19.995	103.196	20.021	2.976	0.494
146.000	147.455	79.997	19.996	103.196	20.021	2.956	0.503
146.500	147.729	79.997	19.995	103.195	20.020	3.041	0.487
147.000	147.938	79.998	19.994	103.195	20.018	3.165	0.488
147.500	148.212	79.997	19.995	103.195	20.019	3.102	0.483
148.000	148.475	79.996	19.995	103.194	20.022	2.846	0.510
148.500	148.721	79.997	19.995	103.195	20.023	2.834	0.523
149.000	148.928	79.998	19.995	103.195	20.021	2.952	0.481
149.500	149.195	79.998	19.995	103.196	20.021	2.979	0.464
150.000	149.488	79.997	19.995	103.195	20.018	3.153	0.517
150.500	149.702	79.998	19.996	103.194	20.017	3.281	0.533
151.000	149.979	79.999	19.996	103.192	20.018	3.198	0.499
151.500	150.196	79.998	19.996	103.190	20.017	3.261	0.493
152.000	150.441	79.999	19.995	103.190	20.018	3.180	0.478
152.500	150.684	79.998	19.995	103.190	20.014	3.476	0.475
153.000	150.962	79.998	19.995	103.190	20.018	3.143	0.504
153.500	151.168	79.997	19.995	103.190	20.018	3.172	0.502
154.000	151.422	79.999	19.995	103.192	20.017	3.253	0.472
154.500	151.698	79.999	19.995	103.188	20.020	3.031	0.495
155.000	151.952	79.999	19.995	103.188	20.015	3.421	0.530
155.500	152.165	79.999	19.996	103.186	20.018	3.149	0.499
156.000	152.390	79.999	19.994	103.187	20.017	3.269	0.453
156.500	152.666	79.999	19.995	103.186	20.018	3.183	0.470
157.000	152.937	79.999	19.995	103.189	20.018	3.198	0.524
157.500	153.153	79.998	19.995	103.190	20.021	2.966	0.517
158.000	153.414	80.000	19.995	103.193	20.016	3.289	0.482
158.500	153.665	79.999	19.995	103.194	20.016	3.293	0.495
159.000	153.928	79.999	19.995	103.196	20.017	3.271	0.513
159.500	154.136	79.999	19.995	103.197	20.015	3.374	0.492
160.000	154.353	79.997	19.995	103.198	20.020	3.019	0.448
160.500	154.618	79.999	19.995	103.198	20.016	3.293	0.453
161.000	154.873	79.999	19.995	103.199	20.017	3.265	0.500
161.500	155.155	79.998	19.996	103.199	20.018	3.182	0.529
162.000	155.381	79.999	19.995	103.195	20.020	3.031	0.522
162.500	155.590	79.999	19.994	103.195	20.020	3.013	0.471
163.000	155.828	79.999	19.995	103.194	20.020	3.033	0.441
163.500	156.116	79.998	19.995	103.195	20.022	2.868	0.487
164.000	156.335	79.999	19.994	103.194	20.021	2.933	0.516
164.500	156.572	79.998	19.995	103.197	20.021	2.917	0.482
165.000	156.805	79.999	19.995	103.198	20.021	2.958	0.463
165.500	157.060	80.000	19.995	103.199	20.022	2.903	0.479
166.000	157.310	79.998	19.995	103.197	20.021	2.933	0.496
166.500	157.551	79.998	19.994	103.194	20.020	3.049	0.498
167.000	157.814	79.997	19.995	103.192	20.021	2.929	0.498
167.500	158.072	79.997	19.995	103.188	20.022	2.903	0.513
168.000	158.296	79.998	19.995	103.184	20.023	2.813	0.501
168.500	158.519	80.000	19.995	103.183	20.022	2.862	0.464
169.000	158.784	79.997	19.995	103.181	20.020	2.992	0.468
169.500	159.065	79.997	19.995	103.182	20.023	2.801	0.518
170.000	159.273	79.999	19.994	103.185	20.021	2.945	0.518
170.500	159.548	79.999	19.996	103.187	20.020	3.031	0.486
171.000	159.771	80.000	19.995	103.187	20.023	2.795	0.490
171.500	160.027	79.998	19.995	103.192	20.022	2.894	0.488
172.000	160.282	79.999	19.994	103.193	20.023	2.825	0.495
