Sample ID:	C:\MCC\MCC Cal\Test\LatexPillow_B_Inner_Fabric_MCC_30K_min_211210_R1.txt
Sample Weight (mg):	4.42
Heating Rate (C/s):	0.5
Combustor Temp (C):	900
N2 Flow Rate (cc/min):	80
O2 Flow Rate (cc/min):	20
Calibration File:	C:\MCC\MCC Cal\Coeff1 JN10440_30_210304.txt.txt
T Correction Coefficients:	0	1.024463	0
Time Shift (s):	14
*
Time (s)	Temperature (C)	N2 flow rate (cc/min)	O2 flow rate (cc/min)	Flow Rate (cc/min)	Oxygen (%)	HRR (W/g)	Heating rate (C/s)
0.000	108.624	80.009	19.998	103.085	20.269	-0.284	0.017
0.500	108.661	80.006	19.999	103.085	20.269	-0.252	0.005
1.000	108.647	80.007	19.997	103.080	20.265	0.032	0.021
1.500	108.661	80.008	19.997	103.074	20.265	-0.006	0.012
2.000	108.653	80.009	19.999	103.069	20.267	-0.148	0.003
2.500	108.625	80.008	19.996	103.064	20.265	0.024	-0.016
3.000	108.655	80.010	19.996	103.064	20.266	-0.058	-0.017
3.500	108.600	80.008	19.996	103.068	20.266	-0.068	-0.011
4.000	108.638	80.008	19.995	103.073	20.266	-0.036	-0.021
4.500	108.627	80.007	19.995	103.076	20.264	0.056	0.005
5.000	108.616	80.007	19.994	103.081	20.264	0.080	0.003
5.500	108.605	80.009	19.995	103.085	20.262	0.220	-0.022
6.000	108.642	80.008	19.996	103.087	20.261	0.267	0.002
6.500	108.602	80.008	19.995	103.090	20.264	0.114	0.011
7.000	108.629	80.009	19.995	103.095	20.262	0.222	-0.008
7.500	108.623	80.007	19.995	103.098	20.263	0.174	0.004
8.000	108.656	80.008	19.994	103.102	20.263	0.176	0.024
8.500	108.672	80.008	19.994	103.105	20.259	0.441	0.038
9.000	108.663	80.007	19.994	103.109	20.261	0.309	0.028
9.500	108.645	80.005	19.994	103.114	20.258	0.553	-0.010
10.000	108.669	80.007	19.995	103.114	20.260	0.345	-0.011
10.500	108.672	80.007	19.997	103.117	20.258	0.509	0.017
11.000	108.643	80.007	19.995	103.122	20.259	0.451	0.001
11.500	108.663	80.006	19.995	103.125	20.258	0.545	-0.018
12.000	108.673	80.005	19.994	103.125	20.258	0.511	0.010
12.500	108.664	80.006	19.995	103.130	20.257	0.561	0.016
13.001	108.697	80.006	19.996	103.131	20.254	0.812	0.013
13.501	108.704	80.006	19.994	103.133	20.256	0.668	0.032
14.000	108.692	80.005	19.995	103.136	20.251	1.027	0.017
14.500	108.745	80.006	19.996	103.140	20.252	0.983	0.018
15.000	108.756	80.005	19.996	103.148	20.251	1.063	0.053
15.500	108.774	80.005	19.996	103.154	20.251	1.031	0.046
16.000	108.760	80.005	19.994	103.160	20.253	0.914	0.016
16.500	108.795	80.004	19.995	103.166	20.251	1.003	0.013
17.000	108.790	80.006	19.996	103.170	20.250	1.073	0.026
17.500	108.847	80.005	19.995	103.172	20.249	1.137	0.041
18.000	108.834	80.005	19.995	103.177	20.250	1.089	0.048
18.500	108.910	80.004	19.995	103.184	20.248	1.236	0.053
19.001	108.868	80.005	19.995	103.190	20.248	1.266	0.048
19.500	108.931	80.004	19.995	103.194	20.246	1.424	0.028
20.000	108.928	80.004	19.996	103.196	20.248	1.246	0.041
20.500	108.972	80.005	19.996	103.199	20.249	1.165	0.050
21.000	109.009	80.004	19.996	103.200	20.247	1.288	0.061
21.500	109.034	80.006	19.996	103.201	20.247	1.350	0.072
22.000	109.088	80.005	19.997	103.207	20.243	1.615	0.071
22.500	109.108	80.005	19.995	103.213	20.244	1.548	0.076
23.000	109.152	80.004	19.995	103.215	20.243	1.643	0.069
23.500	109.188	80.004	19.996	103.215	20.240	1.865	0.072
24.000	109.252	80.003	19.996	103.218	20.238	1.962	0.090
24.500	109.256	80.004	19.995	103.223	20.239	1.914	0.083
25.000	109.321	80.004	19.996	103.229	20.238	1.970	0.068
25.500	109.346	80.004	19.995	103.237	20.237	2.060	0.080
26.000	109.430	80.004	19.995	103.244	20.234	2.303	0.100
26.500	109.425	80.004	19.996	103.249	20.236	2.092	0.094
27.000	109.507	80.006	19.996	103.255	20.236	2.144	0.078
27.500	109.547	80.005	19.996	103.262	20.235	2.226	0.099
28.000	109.612	80.006	19.995	103.267	20.236	2.132	0.114
28.500	109.651	80.005	19.995	103.270	20.235	2.217	0.105
29.000	109.736	80.005	19.996	103.276	20.236	2.124	0.114
29.500	109.799	80.005	19.995	103.275	20.235	2.181	0.136
30.000	109.899	80.005	19.996	103.272	20.232	2.413	0.156
30.500	109.897	80.006	19.995	103.267	20.232	2.435	0.131
31.000	110.027	80.005	19.996	103.270	20.232	2.387	0.113
31.500	110.073	80.005	19.995	103.268	20.233	2.365	0.152
32.000	110.118	80.005	19.996	103.267	20.231	2.518	0.134
32.500	110.190	80.006	19.995	103.266	20.232	2.426	0.105
33.000	110.248	80.005	19.995	103.268	20.234	2.293	0.123
33.500	110.345	80.004	19.995	103.266	20.231	2.466	0.142
34.001	110.435	80.005	19.994	103.267	20.232	2.438	0.171
34.501	110.529	80.003	19.995	103.273	20.228	2.726	0.186
35.000	110.593	80.005	19.994	103.277	20.230	2.582	0.171
35.500	110.669	80.005	19.995	103.278	20.231	2.514	0.149
36.001	110.722	80.004	19.997	103.275	20.233	2.347	0.134
36.501	110.797	80.004	19.995	103.271	20.232	2.423	0.129
37.000	110.894	80.006	19.995	103.266	20.230	2.560	0.150
37.500	110.966	80.004	19.996	103.261	20.232	2.387	0.170
38.001	111.054	80.005	19.995	103.258	20.233	2.353	0.165
38.501	111.132	80.005	19.995	103.266	20.231	2.484	0.163
39.001	111.204	80.004	19.993	103.273	20.230	2.548	0.158
39.500	111.286	80.005	19.994	103.277	20.227	2.744	0.152
40.000	111.406	80.004	19.995	103.282	20.231	2.493	0.178
40.500	111.468	80.005	19.994	103.287	20.231	2.467	0.192
41.000	111.586	80.004	19.994	103.286	20.225	2.891	0.181
41.500	111.717	80.005	19.994	103.287	20.226	2.859	0.215
42.000	111.797	80.005	19.995	103.289	20.229	2.614	0.230
42.500	111.918	80.006	19.994	103.290	20.227	2.770	0.206
43.000	111.970	80.005	19.994	103.293	20.228	2.668	0.187
43.500	112.088	80.004	19.994	103.294	20.226	2.818	0.172
44.000	112.191	80.005	19.995	103.294	20.225	2.905	0.196
44.500	112.284	80.005	19.994	103.294	20.231	2.478	0.209
45.000	112.415	80.007	19.995	103.293	20.228	2.708	0.210
45.500	112.514	80.005	19.995	103.291	20.226	2.819	0.227
46.000	112.612	80.006	19.996	103.291	20.227	2.776	0.213
46.501	112.715	80.006	19.995	103.291	20.227	2.774	0.199
47.001	112.857	80.005	19.995	103.290	20.228	2.704	0.224
47.501	112.957	80.005	19.995	103.290	20.229	2.614	0.244
48.000	113.068	80.006	19.995	103.289	20.228	2.700	0.226
48.500	113.136	80.006	19.995	103.289	20.225	2.939	0.195
49.000	113.281	80.006	19.995	103.288	20.228	2.730	0.196
49.500	113.359	80.006	19.993	103.286	20.229	2.598	0.218
50.000	113.505	80.005	19.994	103.284	20.232	2.435	0.223
50.500	113.645	80.006	19.995	103.284	20.229	2.666	0.255
51.000	113.779	80.006	19.995	103.284	20.228	2.704	0.280
51.500	113.923	80.006	19.995	103.284	20.225	2.901	0.276
52.000	114.040	80.007	19.994	103.287	20.227	2.786	0.270
52.500	114.127	80.006	19.995	103.287	20.227	2.776	0.232
53.000	114.272	80.006	19.994	103.284	20.228	2.732	0.218
53.500	114.357	80.006	19.995	103.285	20.227	2.766	0.231
54.000	114.500	80.008	19.994	103.284	20.227	2.785	0.229
54.500	114.642	80.006	19.995	103.284	20.226	2.841	0.256
55.000	114.754	80.008	19.995	103.285	20.231	2.498	0.269
55.500	114.872	80.007	19.995	103.288	20.227	2.781	0.242
56.001	115.047	80.007	19.995	103.287	20.230	2.580	0.262
56.501	115.149	80.008	19.994	103.287	20.229	2.626	0.285
57.001	115.293	80.008	19.995	103.287	20.232	2.439	0.262
57.501	115.442	80.008	19.994	103.287	20.231	2.504	0.270
58.000	115.554	80.007	19.997	103.288	20.232	2.416	0.277
58.500	115.718	80.008	19.997	103.288	20.232	2.414	0.268
59.000	115.832	80.007	19.997	103.288	20.230	2.572	0.277
59.500	115.979	80.007	19.995	103.288	20.231	2.504	0.269
60.001	116.081	80.008	19.996	103.287	20.225	2.931	0.255
60.501	116.226	80.008	19.996	103.287	20.230	2.588	0.248
61.000	116.381	80.008	19.996	103.286	20.231	2.518	0.273
61.500	116.499	80.007	19.995	103.286	20.228	2.728	0.286
62.000	116.651	80.008	19.995	103.287	20.228	2.734	0.272
62.500	116.782	80.007	19.994	103.287	20.228	2.716	0.277
63.000	116.933	80.008	19.995	103.288	20.226	2.861	0.282
63.500	117.110	80.008	19.995	103.289	20.226	2.865	0.305
64.000	117.229	80.008	19.995	103.289	20.227	2.771	0.312
64.500	117.363	80.008	19.995	103.290	20.226	2.837	0.275
65.000	117.514	80.007	19.994	103.293	20.225	2.938	0.269
65.500	117.624	80.008	19.994	103.295	20.226	2.873	0.273
66.000	117.791	80.006	19.996	103.294	20.228	2.705	0.269
66.500	117.917	80.008	19.993	103.294	20.226	2.847	0.285
67.000	118.078	80.009	19.996	103.293	20.225	2.930	0.290
67.500	118.236	80.008	19.995	103.289	20.226	2.842	0.303
68.001	118.401	80.007	19.995	103.288	20.227	2.793	0.321
68.501	118.559	80.007	19.995	103.291	20.226	2.874	0.323
69.000	118.734	80.007	19.996	103.299	20.223	3.038	0.328
69.500	118.882	80.007	19.995	103.306	20.225	2.900	0.328
70.000	119.055	80.008	19.995	103.308	20.223	3.052	0.322
70.500	119.174	80.007	19.994	103.307	20.224	3.032	0.306
71.000	119.338	80.008	19.995	103.304	20.225	2.898	0.288
71.500	119.477	80.007	19.995	103.296	20.226	2.888	0.293
72.000	119.679	80.007	19.995	103.291	20.226	2.824	0.322
72.500	119.800	80.006	19.995	103.290	20.224	3.018	0.332
73.000	120.003	80.007	19.994	103.291	20.227	2.786	0.324
73.500	120.142	80.007	19.993	103.292	20.228	2.705	0.333
74.001	120.246	80.007	19.995	103.294	20.226	2.882	0.293
74.501	120.444	80.007	19.994	103.296	20.225	2.906	0.273
75.001	120.642	80.009	19.994	103.301	20.223	3.048	0.349
75.501	120.759	80.009	19.994	103.308	20.226	2.856	0.356
76.000	120.971	80.006	19.995	103.308	20.226	2.854	0.322
76.501	121.141	80.008	19.994	103.311	20.225	2.944	0.355
77.001	121.307	80.009	19.994	103.314	20.224	3.022	0.359
77.500	121.457	80.008	19.991	103.314	20.224	2.972	0.326
78.000	121.631	80.008	19.993	103.313	20.226	2.874	0.320
78.500	121.797	80.008	19.994	103.320	20.222	3.155	0.332
79.000	121.951	80.009	19.994	103.322	20.225	2.956	0.330
79.500	122.115	80.008	19.995	103.323	20.223	3.079	0.319
80.000	122.316	80.007	19.994	103.324	20.221	3.197	0.342
80.500	122.497	80.009	19.994	103.325	20.224	3.028	0.373
81.000	122.650	80.009	19.994	103.321	20.221	3.201	0.358
81.500	122.823	80.008	19.994	103.321	20.220	3.277	0.330
82.000	122.999	80.010	19.995	103.322	20.220	3.263	0.337
82.500	123.186	80.008	19.994	103.322	20.220	3.263	0.356
83.000	123.337	80.009	19.994	103.323	20.223	3.050	0.350
83.500	123.525	80.009	19.994	103.326	20.224	3.022	0.338
84.000	123.688	80.009	19.995	103.326	20.218	3.400	0.345
84.500	123.891	80.009	19.994	103.326	20.221	3.213	0.359
85.000	124.075	80.009	19.995	103.326	20.222	3.133	0.376
85.501	124.259	80.010	19.995	103.327	20.224	3.020	0.378
86.001	124.432	80.009	19.993	103.328	20.221	3.221	0.363
86.500	124.630	80.009	19.994	103.327	20.219	3.329	0.364
87.000	124.798	80.009	19.995	103.327	20.222	3.143	0.369
87.500	125.013	80.008	19.994	103.327	20.221	3.183	0.375
88.000	125.184	80.009	19.995	103.326	20.217	3.518	0.384
88.500	125.348	80.007	19.995	103.327	20.224	3.016	0.360
89.000	125.539	80.009	19.993	103.327	20.221	3.199	0.345
89.500	125.733	80.007	19.995	103.327	20.223	3.087	0.370
90.000	125.941	80.009	19.995	103.327	20.219	3.346	0.394
90.500	126.116	80.008	19.995	103.327	20.220	3.319	0.393
91.000	126.314	80.007	19.994	103.327	20.221	3.233	0.378
91.500	126.487	80.006	19.996	103.327	20.221	3.193	0.372
92.000	126.691	80.007	19.995	103.327	20.220	3.325	0.374
92.500	126.909	80.005	19.995	103.326	20.216	3.566	0.399
93.000	127.053	80.005	19.996	103.326	20.219	3.358	0.392
93.500	127.288	80.006	19.995	103.326	20.217	3.494	0.370
94.000	127.435	80.005	19.996	103.327	20.218	3.408	0.380
94.500	127.641	80.005	19.995	103.327	20.219	3.392	0.367
95.001	127.825	80.006	19.996	103.327	20.214	3.691	0.372
95.501	128.051	80.006	19.995	103.327	20.217	3.494	0.400
96.000	128.237	80.007	19.994	103.327	20.215	3.622	0.412
96.500	128.434	80.006	19.997	103.327	20.215	3.661	0.398
97.000	128.665	80.006	19.995	103.327	20.217	3.510	0.405
97.501	128.846	80.005	19.995	103.327	20.216	3.550	0.420
98.001	129.053	80.006	19.995	103.328	20.216	3.582	0.400
98.501	129.236	80.004	19.995	103.328	20.214	3.713	0.389
99.001	129.445	80.006	19.996	103.328	20.217	3.528	0.392
99.501	129.658	80.006	19.996	103.329	20.216	3.580	0.407
100.000	129.873	80.007	19.995	103.329	20.216	3.584	0.425
100.500	130.044	80.005	19.995	103.330	20.215	3.624	0.407
101.000	130.243	80.005	19.995	103.329	20.215	3.653	0.378
101.500	130.461	80.006	19.996	103.329	20.213	3.797	0.393
102.000	130.655	80.004	19.995	103.328	20.215	3.634	0.415
102.500	130.891	80.004	19.994	103.329	20.216	3.562	0.421
103.000	131.071	80.006	19.996	103.329	20.216	3.590	0.423
103.500	131.253	80.005	19.996	103.329	20.214	3.691	0.389
104.000	131.489	80.005	19.995	103.330	20.215	3.681	0.390
104.500	131.672	80.005	19.995	103.331	20.215	3.687	0.419
105.000	131.893	80.005	19.994	103.330	20.216	3.550	0.412
105.500	132.087	80.006	19.995	103.329	20.214	3.711	0.409
106.000	132.310	80.006	19.995	103.329	20.215	3.624	0.416
106.500	132.513	80.005	19.995	103.330	20.214	3.691	0.422
107.000	132.727	80.006	19.995	103.329	20.212	3.895	0.422
107.500	132.944	80.005	19.995	103.330	20.216	3.592	0.424
108.000	133.129	80.006	19.996	103.330	20.216	3.588	0.416
108.501	133.312	80.006	19.995	103.330	20.217	3.478	0.385
109.001	133.536	80.006	19.995	103.328	20.218	3.440	0.388
109.501	133.771	80.005	19.995	103.328	20.218	3.464	0.433
110.001	133.992	80.006	19.995	103.328	20.217	3.530	0.457
110.500	134.168	80.005	19.995	103.327	20.216	3.550	0.426
111.001	134.426	80.006	19.996	103.327	20.215	3.682	0.415
111.501	134.646	80.006	19.995	103.327	20.216	3.584	0.456
112.001	134.845	80.005	19.995	103.328	20.219	3.390	0.448
112.501	135.064	80.006	19.995	103.328	20.215	3.626	0.418
113.000	135.248	80.005	19.995	103.328	20.219	3.379	0.411
113.500	135.477	80.006	19.995	103.328	20.216	3.574	0.409
114.001	135.694	80.007	19.996	103.327	20.218	3.438	0.430
114.501	135.935	80.006	19.996	103.325	20.217	3.498	0.452
115.000	136.119	80.005	19.996	103.325	20.218	3.448	0.442
115.501	136.327	80.006	19.995	103.326	20.219	3.390	0.409
116.001	136.542	80.006	19.996	103.327	20.217	3.476	0.407
116.500	136.805	80.004	19.997	103.328	20.215	3.675	0.450
117.001	137.047	80.007	19.996	103.328	20.218	3.464	0.491
117.501	137.258	80.005	19.994	103.328	20.218	3.456	0.479
118.000	137.454	80.006	19.998	103.327	20.217	3.516	0.430
118.500	137.725	80.007	19.998	103.327	20.215	3.628	0.437
119.001	137.906	80.005	19.997	103.326	20.216	3.600	0.459
119.501	138.164	80.007	19.996	103.326	20.214	3.753	0.446
120.000	138.370	80.007	19.997	103.326	20.216	3.576	0.452
120.500	138.600	80.007	19.997	103.326	20.215	3.665	0.450
121.000	138.813	80.006	19.997	103.325	20.217	3.538	0.440
121.500	139.011	80.006	19.996	103.324	20.216	3.612	0.427
122.000	139.265	80.006	19.997	103.324	20.215	3.689	0.431
122.500	139.490	80.007	19.997	103.324	20.214	3.749	0.465
123.000	139.743	80.005	19.997	103.325	20.212	3.879	0.478
123.500	139.958	80.006	19.998	103.325	20.213	3.797	0.473
124.000	140.163	80.006	19.997	103.325	20.215	3.646	0.444
124.501	140.391	80.005	19.996	103.324	20.216	3.578	0.427
125.001	140.646	80.006	19.996	103.325	20.218	3.434	0.458
125.500	140.881	80.006	19.995	103.324	20.211	3.927	0.486
126.000	141.087	80.005	19.996	103.324	20.213	3.813	0.466
126.501	141.331	80.005	19.996	103.324	20.214	3.705	0.445
127.001	141.576	80.005	19.996	103.326	20.215	3.628	0.469
127.501	141.809	80.006	19.995	103.325	20.217	3.528	0.483
128.000	142.039	80.005	19.995	103.325	20.217	3.488	0.470
128.500	142.256	80.006	19.996	103.325	20.217	3.544	0.455
129.000	142.488	80.005	19.995	103.325	20.216	3.578	0.448
129.500	142.720	80.005	19.996	103.325	20.218	3.424	0.457
130.000	142.946	80.005	19.996	103.327	20.218	3.470	0.461
130.500	143.190	80.005	19.995	103.326	20.216	3.576	0.464
131.000	143.461	80.005	19.996	103.327	20.219	3.354	0.492
131.500	143.642	80.006	19.996	103.326	20.219	3.392	0.483
132.000	143.889	80.006	19.995	103.327	20.217	3.532	0.440
132.500	144.117	80.008	19.995	103.326	20.217	3.544	0.452
133.000	144.356	80.007	19.996	103.327	20.219	3.381	0.471
133.500	144.577	80.007	19.995	103.326	20.221	3.237	0.463
134.000	144.859	80.006	19.995	103.327	20.217	3.508	0.482
134.500	145.039	80.007	19.995	103.326	20.218	3.418	0.483
135.000	145.305	80.008	19.994	103.326	20.221	3.201	0.454
135.500	145.560	80.008	19.994	103.325	20.220	3.309	0.483
136.000	145.750	80.007	19.994	103.326	20.219	3.354	0.483
136.500	146.010	80.007	19.993	103.326	20.221	3.209	0.448
137.000	146.243	80.006	19.995	103.326	20.218	3.412	0.472
137.500	146.464	80.008	19.993	103.326	20.219	3.392	0.473
138.000	146.733	80.006	19.994	103.327	20.217	3.506	0.472
138.500	146.956	80.009	19.994	103.327	20.218	3.408	0.491
139.000	147.198	80.008	19.995	103.327	20.219	3.390	0.479
139.500	147.415	80.007	19.994	103.326	20.222	3.119	0.462
140.000	147.663	80.008	19.995	103.327	20.218	3.412	0.461
140.500	147.907	80.008	19.995	103.329	20.219	3.329	0.478
141.000	148.167	80.008	19.994	103.330	20.219	3.370	0.498
141.500	148.397	80.008	19.994	103.329	20.218	3.416	0.497
142.000	148.639	80.007	19.993	103.330	20.219	3.377	0.481
142.500	148.906	80.008	19.994	103.329	20.219	3.374	0.490
143.000	149.177	80.009	19.995	103.325	20.217	3.524	0.523
143.501	149.379	80.008	19.995	103.321	20.219	3.347	0.506
144.001	149.643	80.007	19.995	103.321	20.217	3.486	0.470
144.500	149.862	80.007	19.994	103.321	20.218	3.408	0.475
145.000	150.141	80.007	19.995	103.323	20.221	3.209	0.490
145.500	150.382	80.007	19.993	103.325	20.218	3.424	0.509
146.000	150.580	80.008	19.994	103.328	20.220	3.273	0.480
146.500	150.872	80.007	19.995	103.329	20.218	3.414	0.464
147.000	151.101	80.007	19.994	103.329	20.218	3.428	0.505
147.500	151.340	80.008	19.994	103.327	20.219	3.327	0.495
148.000	151.605	80.007	19.993	103.326	20.219	3.335	0.486
148.500	151.844	80.007	19.993	103.326	20.220	3.291	0.504
149.000	152.095	80.006	19.995	103.326	20.223	3.103	0.497
149.500	152.315	80.008	19.994	103.326	20.223	3.079	0.481
150.000	152.581	80.007	19.995	103.326	20.223	3.073	0.478
150.500	152.828	80.007	19.995	103.327	20.222	3.143	0.500
151.000	153.054	80.007	19.995	103.327	20.221	3.231	0.493
151.500	153.281	80.006	19.997	103.327	20.220	3.263	0.463
152.000	153.533	80.007	19.995	103.327	20.221	3.181	0.466
152.500	153.762	80.006	19.996	103.325	20.226	2.854	0.480
153.000	154.001	80.005	19.996	103.324	20.224	2.964	0.474
153.500	154.291	80.007	19.995	103.327	20.220	3.265	0.499
154.000	154.489	80.007	19.995	103.326	20.222	3.114	0.509
154.500	154.771	80.006	19.994	103.327	20.221	3.251	0.484
155.000	154.988	80.007	19.995	103.327	20.220	3.277	0.490
155.500	155.215	80.008	19.995	103.326	20.223	3.099	0.471
156.000	155.445	80.007	19.995	103.326	20.222	3.119	0.450
156.500	155.720	80.006	19.993	103.326	20.220	3.275	0.481
157.000	155.926	80.007	19.995	103.325	20.221	3.237	0.493
157.500	156.178	80.007	19.995	103.326	20.220	3.321	0.470
158.000	156.453	80.006	19.994	103.327	20.221	3.187	0.493
158.500	156.695	80.007	19.996	103.325	20.220	3.311	0.522
159.000	156.930	80.007	19.995	103.326	20.219	3.385	0.497
159.500	157.139	80.008	19.996	103.327	20.217	3.489	0.461
160.000	157.441	80.009	19.995	103.327	20.221	3.200	0.478
160.500	157.672	80.007	19.995	103.327	20.218	3.403	0.522
161.000	157.946	80.007	19.994	103.328	20.218	3.453	0.518
161.500	158.206	80.008	19.995	103.328	20.219	3.345	0.519
162.001	158.441	80.007	19.994	103.328	20.220	3.297	0.515
162.500	158.697	80.008	19.994	103.328	20.218	3.437	0.493
163.000	158.925	80.008	19.994	103.327	20.222	3.118	0.487
163.500	159.156	80.007	19.994	103.325	20.221	3.243	0.472
164.000	159.427	80.007	19.994	103.321	20.220	3.283	0.481
164.500	159.651	80.008	19.994	103.321	20.220	3.253	0.499
165.000	159.924	80.008	19.994	103.320	20.221	3.197	0.496
165.500	160.158	80.009	19.994	103.319	20.219	3.343	0.502
166.000	160.390	80.008	19.993	103.322	20.221	3.205	0.486
166.500	160.677	80.008	19.994	103.325	20.221	3.215	0.493
167.000	160.906	80.008	19.994	103.325	20.222	3.140	0.518
167.500	161.168	80.009	19.994	103.327	20.220	3.287	0.503
168.000	161.404	80.009	19.993	103.326	20.219	3.337	0.495
168.500	161.649	80.007	19.993	103.324	20.220	3.301	0.490
169.000	161.910	80.009	19.994	103.319	20.221	3.237	0.494
169.500	162.163	80.008	19.993	103.314	20.222	3.156	0.510
170.000	162.418	80.010	19.994	103.311	20.221	3.212	0.510
170.500	162.681	80.007	19.995	103.308	20.221	3.216	0.513
171.000	162.877	80.008	19.994	103.308	20.223	3.040	0.489
171.500	163.132	80.007	19.994	103.311	20.225	2.959	0.455
172.000	163.370	80.008	19.993	103.317	20.224	2.988	0.472
172.500	163.633	80.008	19.993	103.318	20.223	3.100	0.497
