Sample ID:	C:\MCC\PMMA_MCC_30K_min_210920_R3.txt
Sample Weight (mg):	4.62
Heating Rate (C/s):	0.5
Combustor Temp (C):	900
N2 Flow Rate (cc/min):	80
O2 Flow Rate (cc/min):	20
Calibration File:	C:\MCC\MCC Cal\Coeff1 JN10440_30_210304.txt.txt
T Correction Coefficients:	0	1.024463	0
Time Shift (s):	14
*
Time (s)	Temperature (C)	N2 flow rate (cc/min)	O2 flow rate (cc/min)	Flow Rate (cc/min)	Oxygen (%)	HRR (W/g)	Heating rate (C/s)
0.001	108.050	79.995	19.995	100.075	20.330	-0.289	-0.027
0.501	108.044	79.995	19.995	100.075	20.328	-0.173	-0.029
1.000	108.090	79.995	19.995	100.076	20.330	-0.284	0.012
1.500	108.094	79.995	19.994	100.079	20.331	-0.359	0.045
2.000	108.082	79.994	19.995	100.081	20.329	-0.205	0.021
2.500	108.099	79.996	19.997	100.087	20.329	-0.195	-0.001
3.000	108.047	79.995	19.995	100.092	20.331	-0.367	-0.015
3.500	108.042	79.995	19.996	100.095	20.332	-0.406	-0.046
4.000	108.070	79.996	19.995	100.094	20.327	-0.090	-0.018
4.500	108.058	79.997	19.996	100.091	20.330	-0.280	0.020
5.000	108.065	79.995	19.995	100.085	20.325	0.037	0.006
5.500	108.089	79.995	19.995	100.080	20.329	-0.210	0.013
6.000	108.059	79.995	19.995	100.077	20.326	-0.017	0.012
6.500	108.043	79.997	19.995	100.076	20.325	0.085	-0.026
7.001	108.071	79.995	19.995	100.076	20.325	0.053	-0.017
7.501	108.070	79.996	19.994	100.076	20.330	-0.269	0.019
8.001	108.044	79.996	19.995	100.081	20.332	-0.454	-0.000
8.501	108.073	79.995	19.994	100.085	20.330	-0.275	-0.012
9.001	108.074	79.996	19.995	100.089	20.332	-0.397	0.017
9.501	108.050	79.996	19.995	100.095	20.327	-0.065	0.004
10.001	108.075	79.996	19.995	100.097	20.327	-0.057	-0.011
10.501	108.040	79.996	19.994	100.096	20.329	-0.205	-0.005
11.001	108.058	79.996	19.995	100.097	20.328	-0.173	-0.013
11.501	108.064	79.995	19.995	100.099	20.327	-0.065	0.004
12.001	108.041	79.996	19.995	100.099	20.325	0.048	0.003
12.501	108.035	79.996	19.995	100.101	20.328	-0.138	-0.024
13.001	108.047	79.995	19.995	100.101	20.326	-0.041	-0.012
13.501	108.026	79.996	19.995	100.105	20.324	0.133	-0.001
14.001	108.060	79.996	19.994	100.106	20.324	0.142	0.003
14.501	108.037	79.996	19.995	100.108	20.320	0.378	0.012
15.000	108.032	79.995	19.994	100.115	20.322	0.244	-0.009
15.500	108.048	79.995	19.995	100.127	20.324	0.124	-0.009
16.000	108.034	79.996	19.995	100.135	20.322	0.262	0.007
16.500	108.054	79.994	19.994	100.143	20.322	0.238	0.004
17.000	108.045	79.995	19.996	100.152	20.320	0.358	0.009
17.500	108.075	79.995	19.994	100.161	20.319	0.459	0.015
18.000	108.082	79.993	19.994	100.169	20.322	0.286	0.028
18.500	108.096	79.994	19.995	100.177	20.317	0.613	0.029
19.000	108.072	79.994	19.997	100.185	20.317	0.600	0.006
19.500	108.095	79.995	19.995	100.192	20.314	0.819	-0.006
20.000	108.115	79.994	19.995	100.194	20.316	0.686	0.021
20.500	108.113	79.993	19.995	100.194	20.315	0.740	0.031
21.000	108.160	79.994	19.996	100.199	20.311	0.987	0.031
21.500	108.156	79.994	19.996	100.204	20.310	1.087	0.044
22.000	108.204	79.993	19.996	100.207	20.310	1.076	0.044
22.500	108.226	79.994	19.996	100.209	20.311	0.979	0.057
23.000	108.255	79.994	19.996	100.209	20.309	1.160	0.060
23.500	108.243	79.994	19.996	100.206	20.307	1.297	0.034
24.000	108.317	79.993	19.996	100.208	20.307	1.237	0.040
24.500	108.294	79.994	19.996	100.208	20.308	1.195	0.057
25.000	108.312	79.994	19.997	100.210	20.307	1.250	0.023
25.500	108.364	79.993	19.995	100.213	20.308	1.230	0.033
26.000	108.414	79.995	19.996	100.216	20.306	1.342	0.087
26.500	108.441	79.996	19.995	100.215	20.306	1.344	0.089
27.000	108.427	79.996	19.995	100.212	20.308	1.206	0.044
27.500	108.503	79.995	19.995	100.208	20.303	1.531	0.037
28.000	108.559	79.994	19.996	100.205	20.308	1.195	0.097
28.500	108.561	79.994	19.995	100.207	20.303	1.519	0.095
29.000	108.616	79.995	19.995	100.203	20.304	1.501	0.058
29.500	108.663	79.995	19.996	100.185	20.302	1.625	0.080
30.000	108.663	79.994	19.996	100.171	20.306	1.353	0.075
30.500	108.720	79.995	19.997	100.162	20.304	1.466	0.052
31.000	108.773	79.995	19.995	100.147	20.305	1.424	0.083
31.500	108.809	79.997	19.996	100.143	20.306	1.370	0.099
32.000	108.842	79.996	19.996	100.162	20.304	1.492	0.080
32.500	108.892	79.997	19.995	100.214	20.301	1.667	0.076
33.001	108.971	79.997	19.995	100.251	20.302	1.618	0.106
33.501	108.982	79.996	19.997	100.275	20.302	1.627	0.109
34.000	109.031	79.998	19.996	100.290	20.297	1.930	0.075
34.500	109.105	79.997	19.996	100.302	20.301	1.710	0.092
35.001	109.137	79.997	19.995	100.279	20.302	1.614	0.115
35.501	109.194	79.997	19.996	100.264	20.298	1.904	0.097
36.001	109.256	79.996	19.994	100.262	20.300	1.741	0.104
36.501	109.324	79.998	19.995	100.260	20.301	1.656	0.125
37.001	109.368	79.997	19.996	100.261	20.299	1.830	0.121
37.500	109.440	79.998	19.994	100.259	20.297	1.933	0.114
38.001	109.475	79.998	19.995	100.255	20.299	1.806	0.111
38.501	109.559	79.999	19.994	100.256	20.297	1.944	0.113
39.001	109.593	79.997	19.995	100.257	20.298	1.876	0.119
39.500	109.691	79.997	19.994	100.254	20.297	1.937	0.126
40.000	109.730	79.998	19.994	100.254	20.295	2.072	0.135
40.500	109.803	79.998	19.995	100.254	20.295	2.072	0.124
41.000	109.895	79.998	19.995	100.253	20.293	2.205	0.138
41.500	109.935	79.998	19.994	100.256	20.290	2.395	0.149
42.000	110.008	79.996	19.994	100.259	20.292	2.277	0.123
42.500	110.101	79.997	19.994	100.261	20.293	2.205	0.139
43.000	110.183	79.997	19.994	100.266	20.293	2.249	0.170
43.500	110.269	79.996	19.994	100.271	20.295	2.090	0.171
44.000	110.344	79.997	19.995	100.273	20.292	2.299	0.164
44.500	110.423	79.998	19.995	100.273	20.295	2.096	0.158
45.000	110.515	79.997	19.994	100.274	20.291	2.325	0.163
45.501	110.613	79.996	19.994	100.274	20.294	2.183	0.180
46.001	110.667	79.997	19.996	100.272	20.293	2.224	0.171
46.500	110.759	79.997	19.995	100.271	20.293	2.220	0.149
47.001	110.838	79.998	19.995	100.271	20.294	2.172	0.159
47.501	110.949	79.998	19.995	100.271	20.293	2.254	0.181
48.001	111.039	79.997	19.994	100.271	20.292	2.285	0.196
48.502	111.158	79.997	19.995	100.270	20.290	2.403	0.204
49.002	111.211	79.997	19.996	100.270	20.290	2.403	0.190
49.502	111.326	79.997	19.994	100.270	20.293	2.252	0.170
50.002	111.407	79.998	19.994	100.270	20.289	2.475	0.182
50.501	111.494	79.997	19.995	100.273	20.288	2.547	0.182
51.000	111.613	79.996	19.995	100.276	20.290	2.414	0.187
51.500	111.738	79.998	19.995	100.279	20.289	2.518	0.225
52.000	111.777	79.998	19.994	100.280	20.291	2.376	0.204
52.500	111.894	79.997	19.995	100.283	20.291	2.385	0.160
53.000	112.017	79.997	19.994	100.280	20.291	2.364	0.198
53.500	112.124	79.996	19.994	100.277	20.291	2.379	0.235
54.000	112.238	79.997	19.995	100.278	20.292	2.316	0.225
54.500	112.312	79.997	19.996	100.281	20.291	2.342	0.204
55.000	112.405	79.998	19.996	100.284	20.291	2.383	0.178
55.500	112.531	79.997	19.995	100.290	20.292	2.272	0.193
56.000	112.649	79.998	19.995	100.298	20.291	2.388	0.232
56.500	112.743	79.999	19.995	100.301	20.292	2.311	0.228
57.000	112.838	79.999	19.994	100.304	20.291	2.374	0.201
57.500	112.989	79.998	19.996	100.305	20.288	2.588	0.218
58.000	113.103	79.998	19.995	100.306	20.291	2.378	0.256
58.500	113.238	79.998	19.995	100.306	20.292	2.289	0.257
59.000	113.338	79.999	19.995	100.306	20.289	2.514	0.242
59.500	113.489	79.998	19.995	100.306	20.290	2.405	0.243
60.000	113.612	79.999	19.994	100.307	20.292	2.318	0.263
60.501	113.712	80.000	19.995	100.307	20.290	2.453	0.249
61.001	113.835	79.999	19.994	100.307	20.290	2.440	0.223
61.500	113.949	79.999	19.994	100.307	20.289	2.509	0.230
62.000	114.053	79.998	19.994	100.308	20.291	2.331	0.227
62.500	114.215	79.999	19.994	100.307	20.289	2.461	0.242
63.000	114.300	80.000	19.995	100.308	20.288	2.592	0.256
63.500	114.479	79.999	19.995	100.308	20.287	2.616	0.255
64.001	114.604	79.999	19.994	100.308	20.287	2.651	0.285
64.501	114.743	79.998	19.994	100.308	20.288	2.581	0.284
65.000	114.855	79.999	19.994	100.308	20.285	2.789	0.257
65.500	114.979	79.999	19.994	100.307	20.285	2.789	0.243
66.000	115.118	79.998	19.993	100.307	20.288	2.551	0.249
66.500	115.264	80.000	19.995	100.307	20.287	2.651	0.274
67.000	115.388	79.997	19.994	100.308	20.286	2.677	0.278
67.501	115.565	79.998	19.993	100.309	20.285	2.730	0.286
68.001	115.721	79.998	19.992	100.314	20.286	2.725	0.317
68.501	115.803	79.998	19.995	100.315	20.285	2.780	0.286
69.000	115.972	79.998	19.994	100.315	20.285	2.779	0.245
69.500	116.099	79.998	19.994	100.316	20.285	2.738	0.274
70.000	116.240	79.998	19.994	100.315	20.284	2.832	0.282
70.500	116.411	79.996	19.994	100.311	20.283	2.884	0.290
71.000	116.571	79.996	19.994	100.310	20.285	2.768	0.321
71.500	116.699	79.995	19.995	100.310	20.284	2.801	0.309
72.000	116.864	79.996	19.995	100.310	20.284	2.842	0.290
72.500	117.002	79.996	19.995	100.310	20.285	2.788	0.299
73.000	117.171	79.996	19.995	100.311	20.286	2.705	0.305
73.500	117.309	79.995	19.996	100.311	20.286	2.721	0.307
74.001	117.465	79.995	19.996	100.311	20.288	2.566	0.300
74.501	117.610	79.996	19.994	100.312	20.285	2.757	0.298
75.000	117.759	79.995	19.995	100.312	20.285	2.742	0.297
75.500	117.932	79.996	19.993	100.312	20.287	2.626	0.308
76.000	118.060	79.996	19.995	100.313	20.288	2.576	0.312
76.500	118.213	79.995	19.994	100.313	20.286	2.711	0.292
77.000	118.391	79.995	19.994	100.313	20.288	2.528	0.306
77.500	118.565	79.996	19.994	100.314	20.282	2.986	0.341
78.000	118.710	79.996	19.994	100.315	20.284	2.831	0.336
78.501	118.879	79.995	19.994	100.315	20.283	2.917	0.317
79.000	118.994	79.995	19.994	100.321	20.282	2.960	0.299
79.500	119.211	79.995	19.994	100.322	20.283	2.916	0.308
80.000	119.361	79.995	19.995	100.324	20.282	2.951	0.350
80.500	119.489	79.996	19.993	100.326	20.279	3.176	0.322
81.000	119.639	79.996	19.994	100.327	20.282	2.945	0.278
81.500	119.819	79.995	19.995	100.327	20.282	2.960	0.304
82.000	119.977	79.996	19.993	100.329	20.279	3.165	0.333
82.500	120.152	79.995	19.995	100.328	20.281	3.017	0.335
83.000	120.317	79.995	19.994	100.326	20.281	3.045	0.336
83.500	120.465	79.995	19.993	100.325	20.279	3.145	0.327
84.000	120.661	79.995	19.994	100.324	20.281	3.066	0.329
84.500	120.821	79.995	19.994	100.325	20.280	3.073	0.350
85.000	121.000	79.994	19.994	100.330	20.279	3.184	0.347
85.500	121.179	79.997	19.994	100.337	20.283	2.918	0.349
86.000	121.315	79.996	19.994	100.344	20.277	3.273	0.337
86.500	121.549	79.996	19.994	100.346	20.277	3.310	0.342
87.000	121.719	79.995	19.996	100.347	20.281	3.008	0.386
87.500	121.902	79.995	19.995	100.344	20.280	3.099	0.378
88.000	122.066	79.996	19.995	100.343	20.275	3.426	0.350
88.500	122.262	79.996	19.996	100.341	20.278	3.222	0.354
89.000	122.472	79.996	19.995	100.335	20.278	3.213	0.383
89.500	122.633	79.996	19.995	100.333	20.279	3.191	0.388
90.000	122.832	79.995	19.996	100.333	20.281	3.051	0.365
90.500	122.980	79.996	19.995	100.330	20.278	3.254	0.353
91.000	123.193	79.994	19.995	100.329	20.277	3.326	0.354
91.500	123.354	79.996	19.994	100.334	20.278	3.224	0.368
92.000	123.518	79.996	19.994	100.335	20.277	3.289	0.349
92.500	123.684	79.996	19.994	100.336	20.282	2.938	0.327
93.000	123.889	79.995	19.994	100.338	20.278	3.236	0.350
93.500	124.096	79.996	19.995	100.340	20.278	3.210	0.392
94.000	124.267	79.996	19.995	100.341	20.278	3.226	0.395
94.500	124.473	79.996	19.994	100.343	20.280	3.099	0.378
95.001	124.667	79.996	19.994	100.344	20.278	3.271	0.389
95.501	124.854	79.995	19.995	100.345	20.274	3.490	0.390
96.001	125.057	79.995	19.995	100.344	20.280	3.102	0.386
96.501	125.208	79.996	19.995	100.345	20.275	3.461	0.372
97.001	125.421	79.997	19.995	100.345	20.272	3.649	0.359
97.500	125.604	79.996	19.994	100.344	20.271	3.690	0.380
98.000	125.793	79.997	19.994	100.341	20.270	3.810	0.384
98.500	125.994	79.994	19.995	100.337	20.272	3.633	0.381
99.000	126.197	79.996	19.995	100.335	20.266	4.043	0.397
99.500	126.337	79.996	19.995	100.332	20.270	3.768	0.373
100.000	126.566	79.996	19.994	100.330	20.270	3.762	0.355
100.500	126.753	79.996	19.996	100.329	20.271	3.683	0.392
101.000	126.947	79.995	19.994	100.334	20.268	3.929	0.399
101.500	127.176	79.996	19.994	100.336	20.270	3.748	0.402
102.000	127.355	79.996	19.995	100.340	20.266	4.042	0.416
102.500	127.562	79.995	19.995	100.341	20.266	4.051	0.397
103.000	127.777	79.995	19.995	100.343	20.269	3.866	0.404
103.500	127.961	79.995	19.994	100.343	20.268	3.918	0.411
104.000	128.170	79.994	19.995	100.343	20.269	3.827	0.396
104.500	128.357	79.996	19.995	100.342	20.268	3.892	0.394
105.000	128.560	79.997	19.994	100.345	20.267	3.977	0.393
105.500	128.813	79.998	19.995	100.347	20.265	4.108	0.423
106.000	128.991	79.995	19.995	100.343	20.265	4.141	0.443
106.500	129.218	79.995	19.995	100.338	20.263	4.257	0.418
107.000	129.392	79.995	19.995	100.334	20.265	4.115	0.403
107.500	129.637	79.996	19.994	100.334	20.264	4.165	0.410
108.000	129.798	79.995	19.995	100.334	20.263	4.256	0.413
108.500	130.005	79.997	19.995	100.335	20.260	4.459	0.387
109.000	130.194	79.995	19.996	100.336	20.261	4.372	0.382
109.500	130.435	79.997	19.995	100.339	20.262	4.329	0.413
110.000	130.614	79.996	19.997	100.339	20.265	4.139	0.425
110.500	130.814	79.996	19.996	100.339	20.260	4.433	0.399
111.000	131.034	79.995	19.995	100.342	20.262	4.339	0.400
111.500	131.214	79.996	19.995	100.347	20.260	4.439	0.410
112.000	131.457	79.998	19.995	100.348	20.259	4.505	0.412
112.500	131.671	79.996	19.996	100.349	20.261	4.404	0.440
113.000	131.892	79.998	19.995	100.349	20.261	4.357	0.446
113.500	132.106	79.996	19.996	100.349	20.263	4.232	0.435
114.000	132.275	79.997	19.996	100.347	20.261	4.420	0.409
114.500	132.526	79.998	19.996	100.346	20.261	4.391	0.402
115.000	132.725	79.997	19.996	100.345	20.261	4.415	0.435
115.500	132.929	79.996	19.995	100.344	20.259	4.500	0.426
116.000	133.161	79.996	19.996	100.342	20.262	4.329	0.420
116.500	133.384	79.997	19.995	100.344	20.260	4.442	0.445
117.000	133.593	79.998	19.995	100.344	20.258	4.586	0.444
117.500	133.810	79.997	19.996	100.343	20.259	4.527	0.429
118.000	134.044	79.997	19.995	100.342	20.257	4.636	0.438
118.500	134.274	79.997	19.995	100.341	20.258	4.570	0.457
119.000	134.504	79.997	19.996	100.340	20.258	4.571	0.462
119.500	134.708	79.997	19.995	100.340	20.258	4.608	0.447
120.000	134.926	79.997	19.995	100.340	20.254	4.851	0.428
120.500	135.092	79.996	19.994	100.342	20.252	5.017	0.403
121.000	135.329	79.997	19.996	100.344	20.254	4.836	0.393
121.500	135.581	79.996	19.995	100.344	20.252	5.032	0.446
122.000	135.776	79.996	19.996	100.345	20.251	5.068	0.468
122.500	135.999	79.995	19.995	100.346	20.253	4.909	0.433
123.000	136.211	79.997	19.996	100.346	20.250	5.114	0.427
123.500	136.439	79.995	19.996	100.347	20.249	5.205	0.437
124.001	136.703	79.997	19.996	100.347	20.254	4.860	0.466
124.501	136.874	79.998	19.995	100.348	20.249	5.196	0.464
125.001	137.108	79.997	19.995	100.348	20.249	5.170	0.420
125.500	137.357	79.996	19.994	100.345	20.251	5.039	0.444
126.000	137.618	79.997	19.995	100.344	20.248	5.297	0.496
126.501	137.803	79.997	19.993	100.344	20.249	5.221	0.478
127.001	138.082	79.997	19.995	100.342	20.249	5.195	0.455
127.501	138.298	79.996	19.995	100.339	20.247	5.311	0.479
128.001	138.530	79.995	19.994	100.342	20.247	5.311	0.472
128.500	138.757	79.998	19.994	100.343	20.247	5.350	0.454
129.000	138.975	79.998	19.995	100.341	20.244	5.551	0.452
129.500	139.198	79.997	19.994	100.340	20.245	5.446	0.442
130.000	139.463	79.996	19.993	100.340	20.245	5.507	0.464
130.500	139.667	79.996	19.993	100.340	20.242	5.688	0.479
131.000	139.906	79.996	19.995	100.341	20.239	5.884	0.457
131.501	140.114	79.997	19.993	100.343	20.239	5.904	0.445
132.001	140.377	79.995	19.994	100.342	20.239	5.897	0.459
132.500	140.617	79.997	19.994	100.338	20.238	5.938	0.487
133.000	140.840	79.996	19.994	100.335	20.238	5.955	0.483
133.500	141.106	79.996	19.994	100.335	20.240	5.792	0.476
134.000	141.294	79.997	19.994	100.331	20.236	6.056	0.471
134.500	141.531	79.996	19.994	100.333	20.234	6.187	0.439
135.000	141.759	79.996	19.994	100.340	20.237	6.008	0.444
135.500	141.996	79.997	19.993	100.344	20.235	6.137	0.465
136.000	142.206	79.997	19.993	100.346	20.237	6.019	0.456
136.500	142.464	79.996	19.994	100.350	20.234	6.195	0.457
137.000	142.700	79.998	19.993	100.353	20.235	6.180	0.481
137.500	142.952	79.997	19.994	100.354	20.233	6.265	0.491
138.000	143.201	79.999	19.994	100.353	20.236	6.088	0.495
138.500	143.423	79.997	19.994	100.352	20.234	6.246	0.486
139.000	143.675	79.997	19.993	100.352	20.234	6.191	0.473
139.500	143.909	79.998	19.994	100.352	20.232	6.322	0.480
140.000	144.147	79.999	19.993	100.351	20.230	6.500	0.479
140.501	144.403	79.996	19.993	100.352	20.232	6.363	0.482
141.001	144.654	79.997	19.995	100.352	20.233	6.306	0.501
141.500	144.902	79.997	19.994	100.351	20.232	6.381	0.504
142.000	145.109	79.998	19.993	100.352	20.233	6.258	0.477
142.500	145.394	79.998	19.993	100.353	20.233	6.278	0.473
143.000	145.611	79.998	19.994	100.354	20.233	6.311	0.497
143.500	145.856	79.997	19.993	100.355	20.234	6.252	0.483
144.000	146.084	79.998	19.994	100.356	20.233	6.305	0.468
144.500	146.321	79.998	19.994	100.355	20.233	6.289	0.469
145.000	146.581	79.997	19.994	100.355	20.233	6.265	0.481
145.500	146.781	79.998	19.994	100.354	20.232	6.361	0.478
146.000	147.046	79.998	19.993	100.352	20.233	6.254	0.462
146.500	147.249	79.998	19.993	100.351	20.232	6.385	0.466
147.000	147.498	79.997	19.994	100.351	20.231	6.400	0.460
147.500	147.746	79.997	19.993	100.352	20.226	6.741	0.475
148.000	148.025	79.998	19.993	100.352	20.227	6.712	0.512
148.500	148.226	79.997	19.993	100.353	20.227	6.673	0.503
149.000	148.516	79.996	19.994	100.353	20.224	6.869	0.485
149.500	148.784	79.997	19.995	100.353	20.226	6.788	0.525
150.000	149.022	79.997	19.994	100.352	20.225	6.841	0.532
150.500	149.251	79.996	19.994	100.353	20.224	6.869	0.486
151.000	149.509	79.996	19.994	100.354	20.220	7.198	0.477
151.500	149.745	79.995	19.994	100.355	20.222	7.031	0.491
152.000	149.966	79.994	19.994	100.354	20.221	7.098	0.476
152.500	150.216	79.996	19.994	100.355	20.218	7.270	0.464
153.000	150.485	79.996	19.993	100.354	20.217	7.351	0.495
153.500	150.701	79.995	19.994	100.352	20.216	7.441	0.502
154.000	151.005	79.994	19.995	100.350	20.220	7.160	0.502
154.500	151.219	79.995	19.994	100.350	20.214	7.548	0.519
155.000	151.474	79.995	19.994	100.350	20.215	7.500	0.493
155.500	151.724	79.997	19.994	100.350	20.213	7.620	0.487
156.000	151.961	79.996	19.993	100.350	20.209	7.912	0.496
156.500	152.190	79.995	19.994	100.350	20.209	7.929	0.477
157.000	152.456	79.996	19.993	100.350	20.206	8.121	0.480
157.500	152.751	79.997	19.994	100.349	20.206	8.141	0.528
158.000	152.965	79.995	19.994	100.350	20.203	8.321	0.535
158.500	153.194	79.996	19.994	100.349	20.199	8.580	0.476
159.000	153.476	79.996	19.995	100.349	20.203	8.330	0.477
159.500	153.722	79.995	19.994	100.349	20.203	8.305	0.520
160.000	153.981	79.995	19.993	100.349	20.200	8.531	0.517
160.500	154.193	79.997	19.994	100.348	20.199	8.607	0.488
161.000	154.431	79.997	19.994	100.348	20.198	8.634	0.460
161.500	154.654	79.997	19.994	100.348	20.194	8.895	0.455
162.000	154.914	79.995	19.994	100.348	20.195	8.885	0.472
162.500	155.193	79.996	19.994	100.348	20.191	9.118	0.511
163.000	155.400	79.996	19.993	100.348	20.190	9.205	0.513
163.500	155.650	79.995	19.993	100.346	20.192	9.061	0.472
164.001	155.910	79.996	19.994	100.342	20.191	9.122	0.484
164.501	156.160	79.997	19.994	100.340	20.187	9.434	0.510
165.001	156.424	79.996	19.994	100.339	20.185	9.549	0.512
165.501	156.642	79.996	19.994	100.339	20.186	9.460	0.498
166.000	156.879	79.996	19.994	100.341	20.184	9.626	0.468
166.500	157.133	79.997	19.993	100.341	20.184	9.610	0.473
167.000	157.385	79.997	19.994	100.341	20.183	9.692	0.499
167.500	157.650	79.996	19.994	100.340	20.185	9.559	0.512
168.000	157.917	79.998	19.994	100.335	20.180	9.869	0.525
168.501	158.144	79.997	19.995	100.329	20.179	9.967	0.513
169.001	158.414	79.997	19.994	100.325	20.181	9.791	0.495
169.501	158.637	79.997	19.994	100.325	20.182	9.712	0.495
170.000	158.889	79.998	19.993	100.322	20.176	10.130	0.484
170.500	159.107	79.996	19.994	100.327	20.178	10.008	0.472
171.000	159.333	79.997	19.994	100.331	20.177	10.108	0.457
171.500	159.594	79.999	19.993	100.334	20.171	10.478	0.466
172.000	159.860	79.997	19.994	100.333	20.175	10.184	0.507
172.500	160.124	79.998	19.994	100.335	20.169	10.643	0.528
