Sample ID:	C:\MCC\MCC Cal\Test\Cellulose_Insulation_MCC_30K_min_220120_R1.txt
Sample Weight (mg):	4.78
Heating Rate (C/s):	0.5
Combustor Temp (C):	900
N2 Flow Rate (cc/min):	80
O2 Flow Rate (cc/min):	20
Calibration File:	C:\MCC\MCC Cal\Coeff1 JN10440_30_210304.txt.txt
T Correction Coefficients:	0	1.024463	0
Time Shift (s):	14
*
Time (s)	Temperature (C)	N2 flow rate (cc/min)	O2 flow rate (cc/min)	Flow Rate (cc/min)	Oxygen (%)	HRR (W/g)	Heating rate (C/s)
0.000	110.810	80.012	19.995	103.723	20.107	0.098	0.012
0.500	110.770	80.005	19.995	103.727	20.104	0.286	-0.007
1.001	110.801	80.008	19.993	103.730	20.102	0.455	-0.019
1.500	110.787	80.005	19.994	103.737	20.108	0.072	0.004
2.000	110.801	80.010	19.993	103.740	20.105	0.221	0.009
2.500	110.810	80.011	19.996	103.742	20.105	0.273	0.011
3.000	110.803	80.008	19.995	103.745	20.107	0.097	0.013
3.500	110.796	80.007	19.994	103.746	20.106	0.150	-0.006
4.000	110.810	80.010	19.995	103.746	20.107	0.106	-0.004
4.500	110.818	80.008	19.997	103.747	20.107	0.108	0.014
5.000	110.792	80.009	19.995	103.748	20.103	0.377	0.002
5.500	110.791	80.004	19.994	103.744	20.103	0.405	-0.023
6.000	110.774	80.007	19.994	103.740	20.105	0.221	-0.022
6.500	110.781	80.003	19.998	103.740	20.105	0.265	-0.014
7.000	110.810	80.011	19.991	103.741	20.104	0.325	0.013
7.500	110.794	80.006	19.993	103.744	20.103	0.386	0.025
8.000	110.816	80.009	19.994	103.750	20.101	0.535	0.010
8.500	110.765	80.005	19.996	103.754	20.105	0.219	-0.012
9.000	110.749	80.006	19.995	103.753	20.103	0.368	-0.048
9.500	110.774	80.008	19.992	103.755	20.102	0.434	-0.029
10.000	110.761	80.006	19.992	103.755	20.107	0.124	0.010
10.500	110.777	80.006	19.994	103.755	20.106	0.167	0.007
11.000	110.821	80.012	19.990	103.755	20.103	0.382	0.031
11.500	110.796	80.005	19.994	103.758	20.104	0.295	0.039
12.000	110.799	80.007	19.995	103.758	20.103	0.362	-0.001
12.501	110.767	80.007	19.993	103.757	20.103	0.379	-0.025
13.001	110.779	80.008	19.992	103.760	20.105	0.251	-0.025
13.501	110.792	80.008	19.992	103.766	20.104	0.301	0.003
14.000	110.794	80.005	19.993	103.766	20.103	0.388	0.020
14.500	110.806	80.005	19.994	103.767	20.102	0.455	0.014
15.000	110.827	80.003	19.993	103.768	20.102	0.459	0.024
15.500	110.808	80.007	19.994	103.765	20.102	0.448	0.017
16.000	110.814	80.008	19.993	103.759	20.101	0.513	-0.006
16.500	110.831	80.007	19.992	103.759	20.104	0.312	0.005
17.000	110.822	80.008	19.993	103.761	20.100	0.561	0.016
17.500	110.867	80.004	19.994	103.765	20.102	0.440	0.022
18.000	110.838	80.009	19.994	103.768	20.102	0.440	0.027
18.500	110.860	80.007	19.994	103.776	20.101	0.554	0.004
19.000	110.849	80.007	19.993	103.781	20.102	0.450	0.002
19.500	110.855	80.008	19.990	103.786	20.102	0.472	0.003
20.000	110.872	80.008	19.992	103.793	20.103	0.409	0.009
20.500	110.849	80.004	19.994	103.801	20.099	0.645	0.009
21.000	110.860	80.007	19.993	103.802	20.096	0.827	-0.009
21.500	110.887	80.004	19.993	103.802	20.096	0.868	0.013
22.000	110.876	80.006	19.995	103.803	20.100	0.588	0.027
22.500	110.891	80.006	19.993	103.798	20.095	0.956	0.010
23.000	110.912	80.009	19.993	103.800	20.096	0.892	0.020
23.500	110.891	80.004	19.995	103.808	20.095	0.944	0.019
24.000	110.957	80.007	19.992	103.817	20.094	1.019	0.022
24.500	110.978	80.004	19.995	103.829	20.089	1.357	0.066
25.000	110.988	80.003	19.998	103.844	20.090	1.302	0.059
25.500	110.990	80.008	19.994	103.855	20.088	1.423	0.022
26.000	111.043	80.007	19.995	103.863	20.084	1.678	0.034
26.500	111.047	80.006	19.992	103.870	20.083	1.735	0.056
27.000	111.087	80.012	19.993	103.873	20.084	1.666	0.051
27.500	111.071	80.007	19.994	103.876	20.082	1.817	0.034
28.000	111.107	80.010	19.993	103.882	20.080	1.958	0.022
28.500	111.141	80.011	19.996	103.890	20.080	1.960	0.045
29.000	111.194	80.014	19.989	103.898	20.078	2.109	0.078
29.500	111.210	80.011	19.990	103.907	20.077	2.174	0.078
30.000	111.240	80.008	19.992	103.918	20.076	2.251	0.057
30.500	111.288	80.010	19.993	103.924	20.077	2.141	0.062
31.000	111.349	80.009	19.992	103.931	20.073	2.403	0.093
31.500	111.384	80.001	19.998	103.939	20.075	2.262	0.103
32.000	111.436	80.009	19.990	103.942	20.073	2.392	0.091
32.500	111.471	80.007	19.993	103.945	20.071	2.533	0.087
33.000	111.514	79.998	20.000	103.948	20.072	2.461	0.083
33.500	111.591	79.999	19.996	103.945	20.069	2.710	0.099
34.001	111.594	80.006	19.995	103.944	20.071	2.550	0.100
34.501	111.647	80.006	19.993	103.950	20.067	2.845	0.068
35.000	111.719	80.005	19.994	103.957	20.069	2.703	0.090
35.500	111.776	80.004	19.994	103.964	20.068	2.772	0.127
36.000	111.854	80.007	19.993	103.969	20.069	2.688	0.132
36.500	111.930	80.006	19.993	103.976	20.068	2.783	0.144
37.001	111.981	80.008	19.994	103.981	20.070	2.597	0.141
37.501	112.068	80.005	19.993	103.979	20.065	2.980	0.133
38.000	112.134	80.004	19.994	103.977	20.065	2.958	0.145
38.500	112.198	80.009	19.991	103.983	20.067	2.828	0.141
39.000	112.272	80.003	19.994	103.985	20.068	2.791	0.134
39.500	112.319	80.003	19.992	103.985	20.064	3.027	0.130
40.000	112.450	80.007	19.993	103.987	20.063	3.081	0.150
40.500	112.527	80.001	19.993	103.991	20.061	3.261	0.193
41.000	112.572	80.008	19.994	103.991	20.064	3.012	0.164
41.500	112.648	80.006	19.993	103.990	20.065	2.964	0.122
42.000	112.764	80.004	19.995	103.990	20.062	3.180	0.157
42.500	112.839	80.006	19.992	103.991	20.061	3.271	0.191
43.000	112.902	80.001	19.994	103.992	20.059	3.358	0.165
43.500	113.010	80.005	19.993	103.996	20.059	3.407	0.155
44.001	113.128	80.006	19.995	104.002	20.058	3.414	0.199
44.501	113.204	80.001	19.995	104.005	20.062	3.180	0.210
45.000	113.344	80.005	19.994	104.009	20.056	3.608	0.205
45.500	113.444	80.010	19.990	104.014	20.058	3.420	0.228
46.000	113.536	80.004	19.993	104.017	20.058	3.453	0.216
46.500	113.624	80.004	19.993	104.013	20.056	3.591	0.186
47.000	113.740	80.007	19.995	104.013	20.056	3.582	0.192
47.500	113.879	80.000	19.993	104.015	20.056	3.563	0.230
48.000	113.968	80.007	19.992	104.012	20.055	3.619	0.242
48.500	114.088	79.998	19.993	104.015	20.051	3.941	0.219
49.000	114.210	80.003	19.990	104.021	20.054	3.712	0.225
49.500	114.338	80.005	19.994	104.027	20.055	3.654	0.246
50.000	114.448	79.997	19.995	104.025	20.051	3.905	0.244
50.500	114.565	80.000	19.993	104.027	20.056	3.593	0.233
51.000	114.701	80.009	19.992	104.022	20.054	3.738	0.240
51.500	114.822	80.001	19.994	104.019	20.052	3.822	0.255
52.000	114.928	80.003	19.991	104.016	20.051	3.945	0.242
52.500	115.077	80.005	19.994	104.021	20.054	3.714	0.241
53.000	115.227	80.006	19.993	104.022	20.052	3.846	0.277
53.500	115.308	80.007	19.994	104.026	20.047	4.207	0.265
54.000	115.430	80.006	19.996	104.028	20.052	3.846	0.217
54.500	115.623	80.014	19.993	104.030	20.051	3.896	0.259
55.000	115.706	79.998	19.992	104.032	20.051	3.891	0.295
55.500	115.834	80.018	19.996	104.030	20.050	3.982	0.243
56.000	115.976	80.003	19.996	104.031	20.050	3.969	0.241
56.501	116.135	80.013	19.994	104.028	20.052	3.882	0.286
57.001	116.257	80.005	19.995	104.028	20.050	3.966	0.291
57.500	116.449	80.005	19.994	104.025	20.051	3.938	0.297
58.000	116.605	80.003	19.994	104.028	20.051	3.949	0.331
58.500	116.746	79.999	19.995	104.029	20.050	4.003	0.322
59.000	116.902	80.000	19.992	104.032	20.052	3.843	0.297
59.500	117.049	80.006	19.996	104.033	20.048	4.090	0.300
60.000	117.200	80.010	19.995	104.033	20.049	4.025	0.300
60.500	117.352	80.002	19.995	104.031	20.050	4.008	0.300
61.000	117.519	80.003	19.994	104.029	20.048	4.088	0.311
61.500	117.634	79.999	19.995	104.034	20.052	3.860	0.300
62.000	117.821	80.005	19.996	104.035	20.048	4.094	0.292
62.500	118.028	80.008	19.993	104.036	20.047	4.198	0.349
63.000	118.161	80.000	19.995	104.037	20.048	4.102	0.367
63.500	118.329	80.006	19.996	104.038	20.048	4.146	0.320
64.000	118.538	80.005	19.994	104.034	20.049	4.081	0.339
64.500	118.666	80.007	19.995	104.033	20.048	4.112	0.357
65.000	118.829	80.002	19.995	104.034	20.049	4.086	0.314
65.500	119.003	80.002	19.994	104.032	20.050	3.997	0.314
66.001	119.206	79.998	19.997	104.034	20.048	4.146	0.357
66.501	119.362	80.008	19.989	104.035	20.048	4.096	0.368
67.000	119.537	80.001	19.996	104.041	20.048	4.118	0.345
67.500	119.733	80.009	19.990	104.043	20.048	4.144	0.351
68.000	119.928	80.013	19.991	104.045	20.049	4.060	0.381
68.500	120.122	80.008	19.989	104.044	20.046	4.242	0.390
69.000	120.248	80.006	19.993	104.047	20.045	4.354	0.355
69.500	120.455	80.004	19.994	104.047	20.048	4.136	0.326
70.000	120.644	80.015	19.990	104.046	20.045	4.349	0.364
70.500	120.819	80.018	19.995	104.048	20.048	4.103	0.380
71.000	120.987	80.001	19.994	104.047	20.045	4.347	0.353
71.500	121.178	80.011	19.993	104.041	20.048	4.137	0.351
72.000	121.382	80.006	19.993	104.041	20.044	4.417	0.377
72.500	121.578	79.995	19.994	104.044	20.047	4.213	0.397
73.000	121.730	80.014	19.995	104.044	20.043	4.456	0.374
73.500	121.948	80.011	19.993	104.044	20.044	4.423	0.359
74.000	122.184	80.007	19.994	104.047	20.047	4.185	0.412
74.500	122.383	80.008	19.992	104.042	20.048	4.135	0.444
75.000	122.580	80.007	19.994	104.036	20.046	4.276	0.415
75.500	122.777	80.007	19.992	104.033	20.046	4.267	0.395
76.000	122.979	80.004	19.994	104.033	20.047	4.164	0.397
76.500	123.166	80.010	19.992	104.031	20.049	4.082	0.394
77.000	123.353	80.006	19.993	104.035	20.048	4.121	0.382
77.500	123.540	80.005	19.994	104.038	20.045	4.319	0.374
78.000	123.806	80.007	19.997	104.037	20.048	4.153	0.414
78.500	124.017	80.008	19.992	104.037	20.048	4.116	0.465
79.000	124.202	80.006	19.994	104.037	20.046	4.242	0.437
79.500	124.389	79.999	19.998	104.032	20.046	4.282	0.384
80.000	124.630	80.007	19.997	104.030	20.045	4.338	0.400
80.500	124.805	80.004	19.995	104.033	20.043	4.472	0.422
81.000	125.035	80.003	19.994	104.039	20.045	4.336	0.411
81.500	125.217	80.003	19.996	104.040	20.046	4.234	0.408
82.000	125.471	80.000	19.999	104.039	20.047	4.200	0.424
82.500	125.669	80.009	19.995	104.037	20.046	4.232	0.444
83.000	125.902	80.005	19.992	104.035	20.046	4.244	0.441
83.500	126.084	80.006	19.995	104.032	20.047	4.155	0.423
84.000	126.299	80.004	19.993	104.031	20.048	4.112	0.406
84.500	126.502	80.006	19.994	104.032	20.046	4.246	0.408
85.000	126.716	80.007	19.995	104.034	20.046	4.248	0.417
85.500	126.957	80.007	19.994	104.033	20.048	4.139	0.436
86.000	127.151	80.006	19.994	104.032	20.047	4.197	0.445
86.500	127.382	80.013	19.993	104.032	20.049	4.031	0.430
87.000	127.601	79.999	19.997	104.035	20.047	4.185	0.438
87.500	127.826	80.007	19.992	104.033	20.048	4.137	0.447
88.000	128.068	80.006	19.991	104.033	20.046	4.226	0.455
88.500	128.298	80.013	19.993	104.033	20.048	4.133	0.470
89.000	128.503	80.002	19.993	104.032	20.046	4.229	0.453
89.500	128.739	80.006	19.993	104.029	20.046	4.265	0.438
90.000	128.999	80.009	19.990	104.033	20.046	4.224	0.469
90.500	129.227	80.008	19.995	104.035	20.045	4.293	0.492
91.000	129.464	80.005	19.995	104.038	20.047	4.211	0.476
91.500	129.654	80.004	19.993	104.041	20.050	3.953	0.446
92.000	129.934	80.006	19.992	104.046	20.048	4.142	0.448
92.500	130.111	80.009	19.995	104.047	20.048	4.096	0.464
93.000	130.375	80.001	19.998	104.046	20.048	4.094	0.449
93.500	130.590	80.011	19.993	104.041	20.052	3.824	0.460
94.000	130.814	80.003	19.992	104.038	20.049	4.056	0.459
94.500	131.066	80.000	19.991	104.034	20.047	4.159	0.458
95.000	131.310	80.001	19.995	104.032	20.046	4.289	0.486
95.500	131.530	80.008	19.991	104.033	20.046	4.270	0.480
96.000	131.758	80.009	19.995	104.043	20.048	4.147	0.456
96.500	131.991	80.004	19.992	104.046	20.046	4.274	0.455
97.000	132.257	80.004	19.994	104.048	20.046	4.254	0.480
97.500	132.489	80.008	19.990	104.051	20.046	4.250	0.499
98.000	132.700	80.003	19.994	104.049	20.045	4.294	0.471
98.500	132.972	80.006	19.995	104.040	20.045	4.341	0.463
99.000	133.239	80.009	19.991	104.036	20.049	4.021	0.511
99.500	133.460	80.003	19.990	104.035	20.047	4.179	0.513
100.000	133.704	80.005	19.997	104.034	20.049	4.072	0.477
100.500	133.986	80.012	19.987	104.033	20.045	4.351	0.495
101.000	134.168	80.002	19.995	104.039	20.049	4.027	0.495
101.500	134.399	80.008	19.994	104.041	20.048	4.147	0.439
102.000	134.635	80.005	19.992	104.044	20.049	4.038	0.440
102.500	134.880	80.001	19.998	104.042	20.047	4.157	0.474
103.000	135.146	80.011	19.995	104.041	20.047	4.216	0.496
103.500	135.404	80.005	19.992	104.038	20.045	4.345	0.518
104.000	135.648	80.010	19.995	104.038	20.044	4.378	0.513
104.500	135.863	80.001	19.997	104.034	20.048	4.095	0.481
105.000	136.104	80.002	19.999	104.033	20.044	4.390	0.457
105.500	136.380	80.009	19.995	104.033	20.045	4.296	0.486
106.000	136.620	80.006	19.992	104.031	20.048	4.090	0.517
106.500	136.877	80.001	19.993	104.033	20.044	4.406	0.507
107.001	137.134	80.005	19.991	104.032	20.048	4.106	0.505
107.501	137.413	80.008	19.994	104.033	20.045	4.328	0.524
108.000	137.647	80.005	19.995	104.035	20.046	4.276	0.524
108.500	137.877	80.010	19.993	104.034	20.048	4.147	0.489
109.000	138.123	80.005	19.993	104.032	20.048	4.099	0.470
109.500	138.369	80.011	19.992	104.038	20.044	4.371	0.484
110.000	138.626	80.002	20.000	104.042	20.046	4.248	0.497
110.500	138.891	80.007	19.988	104.039	20.044	4.413	0.512
111.000	139.100	80.005	19.995	104.041	20.046	4.255	0.498
111.500	139.389	80.007	19.992	104.038	20.047	4.205	0.487
112.000	139.633	80.010	19.991	104.035	20.051	3.946	0.515
112.500	139.872	80.008	19.993	104.031	20.047	4.175	0.508
113.000	140.155	80.009	19.997	104.032	20.051	3.918	0.502
113.500	140.378	80.006	19.995	104.030	20.047	4.192	0.514
114.000	140.666	80.006	19.991	104.032	20.048	4.123	0.509
114.500	140.910	80.010	19.990	104.032	20.046	4.262	0.521
115.000	141.147	80.010	19.988	104.032	20.048	4.140	0.506
115.500	141.451	80.009	19.988	104.033	20.051	3.888	0.511
116.000	141.675	80.003	19.998	104.035	20.047	4.180	0.535
116.500	141.921	80.006	19.992	104.033	20.048	4.122	0.499
117.000	142.178	80.004	19.999	104.033	20.047	4.175	0.486
117.500	142.402	79.997	19.990	104.032	20.047	4.201	0.492
118.000	142.703	80.006	19.988	104.030	20.049	4.028	0.503
118.500	142.964	80.011	19.992	104.030	20.052	3.848	0.544
119.000	143.191	79.998	19.994	104.031	20.049	4.079	0.525
119.500	143.516	80.005	19.996	104.029	20.051	3.894	0.520
120.000	143.777	80.013	19.990	104.028	20.049	4.036	0.569
120.500	144.012	79.999	19.990	104.030	20.050	3.954	0.541
121.000	144.287	80.003	19.997	104.029	20.049	4.037	0.503
121.500	144.518	80.004	19.996	104.030	20.048	4.099	0.508
122.000	144.799	80.010	19.986	104.032	20.049	4.063	0.509
122.500	145.050	80.007	19.994	104.033	20.050	3.989	0.522
123.000	145.307	80.006	19.993	104.030	20.049	4.032	0.520
123.500	145.592	80.002	19.995	104.030	20.051	3.907	0.525
124.000	145.860	80.006	19.995	104.027	20.050	3.972	0.547
124.500	146.127	80.007	19.987	104.026	20.051	3.933	0.544
125.000	146.359	80.006	19.995	104.025	20.051	3.898	0.517
125.500	146.651	79.997	19.997	104.023	20.051	3.912	0.512
126.000	146.879	80.009	19.997	104.020	20.050	3.975	0.522
126.500	147.146	80.006	19.997	104.018	20.050	3.962	0.508
127.000	147.433	80.005	19.988	104.012	20.047	4.208	0.525
127.500	147.703	80.001	19.993	104.008	20.048	4.096	0.556
128.000	147.954	80.006	19.994	104.014	20.053	3.799	0.539
128.500	148.209	80.014	19.994	104.017	20.050	3.963	0.513
129.000	148.454	80.002	19.992	104.022	20.050	4.011	0.502
129.500	148.728	80.004	19.996	104.027	20.056	3.598	0.509
130.000	148.962	80.013	19.991	104.031	20.050	3.959	0.514
130.500	149.269	80.012	19.991	104.029	20.050	3.992	0.525
131.000	149.522	80.004	19.992	104.030	20.051	3.941	0.550
131.500	149.770	79.997	19.998	104.029	20.050	3.975	0.530
132.000	150.031	80.007	19.997	104.024	20.050	3.956	0.505
132.500	150.275	79.999	20.000	104.024	20.048	4.138	0.507
133.000	150.583	80.013	19.995	104.021	20.051	3.895	0.529
133.501	150.829	80.015	19.996	104.019	20.048	4.135	0.553
134.000	151.060	80.007	19.995	104.018	20.050	3.956	0.515
134.500	151.306	80.006	19.993	104.021	20.052	3.835	0.477
135.000	151.577	80.006	19.992	104.016	20.049	4.040	0.497
135.500	151.838	80.007	19.993	104.016	20.052	3.880	0.525
136.000	152.157	79.988	19.996	104.015	20.049	4.018	0.556
136.500	152.366	80.008	19.995	104.012	20.051	3.930	0.554
137.000	152.640	80.002	19.994	104.010	20.052	3.856	0.505
137.500	152.902	80.002	19.994	104.008	20.050	3.994	0.510
138.000	153.162	80.005	19.995	104.008	20.050	3.990	0.529
138.500	153.437	80.005	19.995	104.009	20.051	3.947	0.528
139.000	153.664	79.996	19.995	104.012	20.050	4.016	0.518
139.500	153.925	80.004	19.996	104.016	20.054	3.705	0.495
140.000	154.165	80.001	19.994	104.018	20.049	4.034	0.495
140.500	154.425	79.993	19.995	104.012	20.052	3.874	0.500
141.000	154.707	79.995	19.990	104.010	20.049	4.042	0.521
141.500	154.938	80.004	19.992	104.001	20.052	3.828	0.528
142.000	155.217	80.005	19.998	103.996	20.047	4.175	0.511
142.500	155.456	80.003	19.996	103.992	20.053	3.755	0.514
143.000	155.721	79.987	19.998	103.993	20.050	3.978	0.511
143.500	156.048	80.008	19.996	103.993	20.052	3.854	0.548
144.000	156.230	80.006	19.997	103.998	20.052	3.815	0.550
144.500	156.515	80.005	19.991	103.996	20.053	3.794	0.488
145.000	156.752	80.004	19.996	103.999	20.050	4.008	0.494
145.500	157.021	80.011	19.992	103.997	20.052	3.869	0.514
146.000	157.258	80.003	19.992	103.995	20.050	4.014	0.506
146.500	157.545	80.005	19.989	103.989	20.051	3.932	0.515
147.000	157.827	80.002	19.995	103.991	20.051	3.906	0.546
147.500	158.061	80.003	19.996	103.997	20.052	3.824	0.542
148.000	158.339	80.007	19.993	104.005	20.047	4.215	0.514
148.500	158.565	80.007	19.996	104.005	20.045	4.310	0.508
149.000	158.817	80.005	19.994	104.005	20.045	4.298	0.491
149.500	159.084	80.006	19.997	104.002	20.048	4.116	0.498
150.000	159.328	80.004	19.997	103.996	20.048	4.120	0.515
150.500	159.593	80.001	19.999	103.988	20.047	4.168	0.510
151.000	159.860	80.005	19.995	103.987	20.048	4.129	0.520
151.500	160.070	80.006	19.993	103.986	20.049	4.038	0.504
152.000	160.361	79.998	19.999	103.988	20.047	4.166	0.489
152.500	160.598	80.004	19.994	103.988	20.048	4.142	0.514
153.000	160.864	79.997	19.996	103.988	20.048	4.150	0.515
153.500	161.136	80.003	19.999	103.987	20.050	3.986	0.521
154.000	161.361	80.007	19.994	103.987	20.048	4.118	0.518
154.500	161.655	80.003	19.995	103.987	20.047	4.203	0.508
155.000	161.875	80.003	19.995	103.987	20.050	3.991	0.517
155.500	162.132	80.004	19.993	103.988	20.048	4.101	0.495
156.000	162.418	80.002	19.996	103.990	20.048	4.110	0.509
156.500	162.655	80.003	19.996	103.990	20.049	4.019	0.533
157.000	162.886	80.003	19.995	103.988	20.049	4.038	0.496
157.500	163.169	80.003	19.995	103.991	20.047	4.166	0.491
158.000	163.423	80.004	19.996	103.992	20.047	4.211	0.525
158.500	163.659	80.004	19.995	103.991	20.049	4.042	0.513
159.000	163.927	80.003	19.995	103.991	20.051	3.949	0.497
159.500	164.208	80.004	19.996	103.993	20.048	4.088	0.527
160.000	164.426	80.008	19.993	103.990	20.047	4.164	0.524
160.500	164.708	80.006	19.989	103.990	20.048	4.116	0.500
161.000	164.988	80.004	19.995	103.991	20.044	4.401	0.531
161.500	165.215	80.011	19.996	103.991	20.046	4.263	0.534
162.000	165.466	80.007	19.995	103.993	20.047	4.220	0.492
162.500	165.691	79.999	19.990	103.993	20.048	4.101	0.477
163.000	165.970	80.001	19.997	103.993	20.046	4.263	0.490
163.500	166.208	80.004	19.997	103.991	20.047	4.176	0.511
164.000	166.491	80.005	19.996	103.989	20.047	4.166	0.519
164.500	166.706	80.009	19.993	103.988	20.047	4.159	0.510
165.000	166.959	80.003	19.995	103.987	20.046	4.272	0.483
165.500	167.241	80.006	19.995	103.985	20.049	4.066	0.501
166.000	167.447	79.995	19.995	103.986	20.046	4.226	0.511
166.500	167.750	80.010	19.992	103.985	20.047	4.164	0.499
167.000	167.970	80.007	19.990	103.986	20.047	4.198	0.516
167.500	168.227	80.008	19.991	103.987	20.047	4.190	0.500
168.000	168.517	80.008	19.993	103.989	20.049	4.083	0.512
168.500	168.741	80.012	19.993	103.989	20.045	4.328	0.530
169.000	168.965	80.002	19.994	103.993	20.047	4.181	0.481
169.500	169.243	80.006	19.995	103.992	20.049	4.075	0.476
170.000	169.504	80.000	19.994	103.992	20.047	4.153	0.520
170.500	169.755	80.004	19.994	103.991	20.048	4.121	0.525
171.000	169.989	80.006	19.993	103.990	20.049	4.066	0.499
171.500	170.269	80.006	19.993	103.989	20.043	4.466	0.500
172.000	170.501	80.008	19.992	103.989	20.046	4.231	0.513
172.500	170.761	80.007	19.995	103.990	20.046	4.242	0.501
