Sample ID:	C:\MCC\MCC Cal\Test\XPS_Foam_Board_MCC_30K_min_220120_R2.txt
Sample Weight (mg):	4.72
Heating Rate (C/s):	0.5
Combustor Temp (C):	900
N2 Flow Rate (cc/min):	80
O2 Flow Rate (cc/min):	20
Calibration File:	C:\MCC\MCC Cal\Coeff1 JN10440_30_210304.txt.txt
T Correction Coefficients:	0	1.024463	0
Time Shift (s):	14
*
Time (s)	Temperature (C)	N2 flow rate (cc/min)	O2 flow rate (cc/min)	Flow Rate (cc/min)	Oxygen (%)	HRR (W/g)	Heating rate (C/s)
0.000	115.240	80.005	19.993	103.801	20.066	-0.384	-0.030
0.501	115.233	80.006	19.994	103.796	20.064	-0.192	-0.014
1.000	115.261	80.007	19.993	103.795	20.063	-0.122	0.008
1.500	115.273	80.007	19.992	103.797	20.066	-0.344	0.030
2.000	115.255	80.006	19.994	103.801	20.065	-0.295	0.017
2.500	115.261	80.007	19.993	103.803	20.060	0.041	-0.009
3.000	115.271	80.006	19.993	103.803	20.063	-0.154	0.002
3.500	115.229	80.005	19.994	103.805	20.061	-0.015	-0.008
4.000	115.281	80.004	19.993	103.810	20.064	-0.216	-0.011
4.500	115.282	80.006	19.994	103.806	20.065	-0.265	0.031
5.000	115.255	80.006	19.992	103.809	20.065	-0.316	0.014
5.500	115.289	80.005	19.992	103.812	20.062	-0.096	-0.009
6.000	115.280	80.004	19.993	103.812	20.066	-0.361	0.016
6.500	115.280	80.004	19.993	103.807	20.062	-0.079	0.008
7.002	115.255	80.006	19.993	103.805	20.063	-0.166	-0.017
7.501	115.276	80.006	19.992	103.803	20.068	-0.471	-0.015
8.000	115.299	80.002	19.996	103.803	20.067	-0.439	0.020
8.500	115.272	80.004	19.997	103.802	20.070	-0.621	0.020
9.000	115.262	80.003	19.995	103.801	20.068	-0.510	-0.021
9.500	115.255	80.006	19.995	103.796	20.069	-0.546	-0.027
10.000	115.246	80.005	19.996	103.796	20.066	-0.382	-0.017
10.500	115.234	80.006	19.994	103.805	20.067	-0.420	-0.018
11.000	115.245	80.004	19.994	103.811	20.063	-0.186	-0.011
11.500	115.248	80.003	19.995	103.809	20.064	-0.226	0.006
12.000	115.226	80.002	19.994	103.813	20.061	-0.049	-0.003
12.500	115.236	80.003	19.994	103.812	20.063	-0.121	-0.015
13.000	115.232	80.001	19.993	103.801	20.062	-0.077	-0.003
13.500	115.223	80.004	19.993	103.802	20.059	0.094	-0.004
14.000	115.246	80.005	19.994	103.812	20.061	-0.034	0.000
14.500	115.246	80.002	19.994	103.822	20.061	-0.038	0.018
15.000	115.258	80.004	19.994	103.837	20.056	0.328	0.018
15.500	115.222	80.003	19.993	103.855	20.057	0.283	-0.006
16.000	115.283	80.002	19.994	103.864	20.057	0.284	0.000
16.500	115.254	80.002	19.993	103.872	20.057	0.279	0.029
17.000	115.313	80.003	19.993	103.884	20.056	0.330	0.031
17.500	115.296	80.004	19.994	103.893	20.051	0.652	0.036
18.000	115.313	80.000	19.994	103.896	20.055	0.414	0.021
18.500	115.347	80.003	19.994	103.908	20.050	0.770	0.025
19.000	115.334	80.002	19.994	103.918	20.049	0.821	0.036
19.500	115.328	80.003	19.994	103.926	20.046	1.045	0.001
20.000	115.334	80.005	19.993	103.939	20.047	0.951	-0.009
20.500	115.350	80.000	19.995	103.932	20.043	1.215	0.011
21.000	115.408	80.001	19.995	103.919	20.045	1.074	0.048
21.500	115.417	80.003	19.994	103.913	20.041	1.383	0.071
22.000	115.453	80.001	19.994	103.908	20.040	1.437	0.056
22.500	115.452	80.002	19.995	103.899	20.040	1.418	0.040
23.000	115.545	80.003	19.996	103.918	20.040	1.396	0.063
23.500	115.557	80.005	19.993	103.960	20.038	1.575	0.098
24.000	115.571	80.002	19.994	103.988	20.037	1.607	0.066
24.500	115.584	80.005	19.994	104.009	20.036	1.684	0.027
25.000	115.638	80.003	19.995	104.022	20.035	1.750	0.047
25.500	115.686	80.002	19.993	104.026	20.039	1.503	0.085
26.000	115.689	80.004	19.994	104.006	20.037	1.656	0.076
26.500	115.764	80.005	19.993	103.991	20.037	1.650	0.064
27.000	115.776	80.003	19.993	103.978	20.035	1.754	0.083
27.500	115.841	80.004	19.994	103.974	20.034	1.865	0.082
28.000	115.865	80.003	19.994	103.974	20.036	1.714	0.083
28.500	115.930	80.005	19.994	103.977	20.034	1.872	0.089
29.000	115.987	80.004	19.994	103.984	20.035	1.759	0.105
29.500	116.068	80.005	19.994	103.987	20.033	1.903	0.130
30.000	116.098	80.003	19.995	103.985	20.035	1.741	0.124
30.500	116.170	80.004	19.994	103.983	20.031	2.044	0.106
31.000	116.198	80.000	19.993	103.983	20.031	2.052	0.101
31.500	116.286	80.004	19.995	103.981	20.033	1.918	0.108
32.000	116.328	80.004	19.993	103.984	20.032	2.009	0.123
32.500	116.380	80.004	19.994	103.990	20.033	1.916	0.112
33.000	116.453	80.002	19.995	103.991	20.035	1.766	0.110
33.500	116.499	80.003	19.994	103.991	20.030	2.101	0.122
34.000	116.580	80.002	19.994	103.992	20.033	1.937	0.123
34.500	116.674	80.004	19.992	103.988	20.030	2.084	0.151
35.000	116.724	80.003	19.993	103.987	20.029	2.195	0.159
35.500	116.799	80.002	19.994	103.989	20.032	1.956	0.135
36.000	116.855	80.005	19.992	103.992	20.031	2.039	0.129
36.500	116.939	80.005	19.993	103.992	20.030	2.135	0.136
37.000	117.005	80.005	19.993	103.996	20.028	2.223	0.144
37.500	117.074	80.004	19.993	103.997	20.027	2.287	0.142
38.000	117.200	80.004	19.992	103.995	20.029	2.178	0.165
38.500	117.233	80.002	19.994	103.997	20.030	2.146	0.177
39.000	117.370	80.004	19.993	103.997	20.029	2.161	0.165
39.500	117.419	80.003	19.994	103.997	20.029	2.165	0.178
40.000	117.514	80.003	19.993	104.000	20.028	2.248	0.165
40.500	117.637	80.001	19.994	104.008	20.027	2.320	0.181
41.000	117.695	80.004	19.994	104.011	20.027	2.329	0.200
41.500	117.788	80.003	19.993	104.017	20.030	2.121	0.166
42.000	117.883	80.002	19.993	104.023	20.028	2.276	0.170
42.500	117.997	80.002	19.994	104.028	20.029	2.212	0.199
43.000	118.074	80.004	19.993	104.028	20.026	2.381	0.200
43.500	118.216	80.004	19.994	104.027	20.027	2.302	0.205
44.000	118.271	80.006	19.994	104.028	20.029	2.195	0.209
44.500	118.335	80.003	19.995	104.029	20.026	2.378	0.158
45.000	118.464	80.004	19.994	104.028	20.028	2.233	0.156
45.500	118.600	80.006	19.994	104.027	20.030	2.135	0.229
46.000	118.692	80.003	19.993	104.027	20.026	2.370	0.246
46.500	118.812	80.007	19.994	104.027	20.025	2.470	0.220
47.000	118.952	80.002	19.993	104.023	20.024	2.557	0.236
47.500	119.031	80.003	19.994	104.023	20.024	2.510	0.239
48.000	119.147	80.003	19.993	104.023	20.024	2.546	0.207
48.500	119.251	80.003	19.994	104.023	20.026	2.378	0.208
49.000	119.379	80.004	19.994	104.024	20.025	2.491	0.226
49.500	119.482	80.005	19.994	104.027	20.027	2.333	0.232
50.000	119.569	80.007	19.993	104.028	20.026	2.394	0.211
50.500	119.705	80.005	19.993	104.029	20.025	2.450	0.207
51.000	119.833	80.008	19.993	104.030	20.028	2.224	0.244
51.500	119.957	80.004	19.995	104.029	20.029	2.196	0.258
52.000	120.069	80.006	19.993	104.025	20.026	2.392	0.244
52.500	120.170	80.008	19.994	104.017	20.024	2.537	0.225
53.000	120.358	80.006	19.993	104.011	20.027	2.330	0.251
53.500	120.458	80.007	19.993	104.007	20.027	2.343	0.288
54.000	120.605	80.003	19.993	104.007	20.028	2.269	0.267
54.500	120.714	80.002	19.994	104.011	20.029	2.197	0.252
55.000	120.852	80.007	19.995	104.016	20.024	2.510	0.252
55.500	120.979	80.006	19.994	104.019	20.026	2.392	0.256
56.000	121.080	80.004	19.994	104.019	20.024	2.539	0.246
56.500	121.243	80.005	19.993	104.018	20.023	2.608	0.246
57.000	121.413	80.006	19.993	104.019	20.024	2.516	0.299
57.501	121.507	80.007	19.994	104.021	20.024	2.546	0.299
58.001	121.683	80.004	19.994	104.022	20.023	2.576	0.267
58.500	121.798	80.006	19.994	104.022	20.025	2.469	0.281
59.000	121.947	80.009	19.993	104.022	20.026	2.382	0.277
59.500	122.077	80.004	19.993	104.025	20.026	2.407	0.271
60.000	122.230	79.998	19.995	104.033	20.023	2.594	0.281
60.500	122.355	80.002	19.993	104.042	20.027	2.349	0.280
61.000	122.464	80.003	19.994	104.053	20.028	2.222	0.256
61.500	122.665	80.007	19.994	104.060	20.023	2.588	0.272
62.000	122.769	80.005	19.994	104.060	20.023	2.586	0.308
62.500	122.944	80.003	19.994	104.055	20.022	2.665	0.292
63.000	123.080	80.006	19.994	104.056	20.029	2.215	0.295
63.500	123.248	80.006	19.993	104.054	20.024	2.514	0.307
64.000	123.368	80.006	19.992	104.056	20.023	2.571	0.296
64.500	123.547	80.008	19.993	104.055	20.023	2.565	0.294
65.000	123.660	80.006	19.995	104.052	20.024	2.508	0.296
65.500	123.820	80.005	19.993	104.048	20.027	2.339	0.283
66.000	124.033	80.006	19.993	104.051	20.025	2.486	0.323
66.500	124.127	80.006	19.993	104.046	20.024	2.546	0.340
67.000	124.309	80.005	19.993	104.044	20.025	2.452	0.291
67.500	124.438	80.006	19.995	104.044	20.022	2.643	0.293
68.000	124.676	80.006	19.994	104.042	20.023	2.584	0.339
68.500	124.781	80.006	19.993	104.039	20.023	2.597	0.355
69.000	124.944	80.006	19.993	104.040	20.024	2.496	0.305
69.500	125.155	80.007	19.992	104.044	20.022	2.663	0.321
70.000	125.298	80.006	19.993	104.051	20.022	2.665	0.364
70.500	125.474	80.002	19.995	104.056	20.023	2.628	0.336
71.000	125.621	80.011	19.990	104.058	20.022	2.675	0.321
71.500	125.756	80.006	19.993	104.063	20.021	2.746	0.303
72.000	125.961	80.008	19.994	104.065	20.023	2.631	0.311
72.500	126.087	80.006	19.993	104.064	20.021	2.708	0.335
73.000	126.291	80.005	19.992	104.061	20.023	2.631	0.330
73.500	126.461	80.007	19.993	104.056	20.020	2.795	0.352
74.000	126.631	80.006	19.994	104.056	20.022	2.654	0.357
74.500	126.826	80.004	19.994	104.054	20.023	2.582	0.353
75.000	126.956	80.007	19.993	104.052	20.024	2.516	0.345
75.500	127.180	80.004	19.993	104.050	20.023	2.614	0.339
76.000	127.334	80.007	19.992	104.048	20.020	2.784	0.366
76.500	127.535	80.006	19.993	104.045	20.021	2.735	0.366
77.000	127.740	80.008	19.993	104.049	20.021	2.708	0.380
77.500	127.931	80.005	19.994	104.052	20.021	2.731	0.401
78.000	128.063	80.007	19.992	104.058	20.021	2.752	0.360
78.500	128.263	80.006	19.993	104.064	20.021	2.742	0.328
79.000	128.418	80.006	19.993	104.064	20.022	2.697	0.343
79.500	128.662	80.003	19.994	104.066	20.022	2.674	0.377
80.000	128.846	80.008	19.992	104.065	20.024	2.529	0.413
80.500	129.027	80.008	19.992	104.064	20.020	2.829	0.396
81.000	129.212	80.004	19.993	104.062	20.019	2.874	0.365
81.500	129.432	80.009	19.992	104.061	20.020	2.780	0.385
82.000	129.589	80.003	19.993	104.058	20.020	2.837	0.391
82.500	129.797	80.012	19.992	104.053	20.022	2.646	0.371
83.000	129.961	80.007	19.992	104.052	20.021	2.763	0.368
83.500	130.189	80.008	19.994	104.051	20.023	2.609	0.382
84.000	130.389	80.005	19.993	104.052	20.021	2.758	0.410
84.500	130.532	80.004	19.993	104.053	20.022	2.673	0.385
85.000	130.739	80.005	19.993	104.056	20.019	2.871	0.346
85.501	130.968	80.003	19.993	104.052	20.020	2.778	0.393
86.001	131.182	80.006	19.995	104.050	20.022	2.667	0.440
86.500	131.340	80.003	19.994	104.049	20.022	2.672	0.408
87.000	131.539	80.002	19.994	104.049	20.019	2.882	0.364
87.500	131.699	80.004	19.995	104.050	20.021	2.757	0.357
88.000	131.924	80.003	19.993	104.050	20.022	2.686	0.372
88.500	132.173	80.001	19.994	104.048	20.018	2.950	0.430
89.000	132.345	80.001	19.997	104.051	20.017	3.023	0.448
89.500	132.516	80.003	19.993	104.051	20.020	2.780	0.382
90.000	132.738	80.003	19.992	104.050	20.019	2.876	0.368
90.500	132.935	80.004	19.995	104.056	20.021	2.761	0.406
91.000	133.146	80.006	19.993	104.058	20.018	2.933	0.413
91.500	133.312	80.000	19.990	104.057	20.026	2.424	0.392
92.000	133.483	80.004	19.995	104.054	20.021	2.723	0.357
92.500	133.736	80.003	19.993	104.054	20.021	2.733	0.381
93.000	133.921	80.003	19.994	104.055	20.021	2.705	0.431
93.500	134.179	80.004	19.994	104.060	20.020	2.818	0.441
94.000	134.356	80.005	19.992	104.063	20.020	2.790	0.439
94.500	134.597	80.003	19.995	104.068	20.021	2.718	0.427
95.000	134.775	80.001	19.991	104.071	20.019	2.841	0.419
95.500	134.990	79.999	19.999	104.070	20.018	2.933	0.406
96.000	135.212	80.003	19.991	104.062	20.021	2.703	0.415
96.500	135.401	80.005	19.997	104.058	20.020	2.780	0.424
97.000	135.652	80.002	19.991	104.053	20.021	2.716	0.426
97.500	135.851	80.003	19.995	104.051	20.021	2.722	0.446
98.000	136.043	80.002	19.998	104.051	20.021	2.722	0.421
98.500	136.270	80.006	19.994	104.054	20.025	2.473	0.405
99.000	136.450	79.995	19.992	104.056	20.021	2.748	0.413
99.500	136.704	80.006	19.994	104.059	20.020	2.801	0.420
100.000	136.922	80.007	19.995	104.062	20.021	2.735	0.453
100.500	137.106	80.001	19.993	104.064	20.020	2.774	0.437
101.000	137.308	80.005	19.992	104.067	20.023	2.605	0.394
101.500	137.502	80.002	19.995	104.061	20.022	2.652	0.391
102.000	137.776	80.007	19.994	104.059	20.023	2.569	0.432
102.500	137.974	79.999	20.001	104.058	20.022	2.657	0.470
103.000	138.171	80.004	19.996	104.055	20.024	2.554	0.434
103.500	138.364	80.001	19.995	104.056	20.020	2.812	0.392
104.000	138.591	80.006	19.993	104.062	20.022	2.650	0.405
104.500	138.819	80.004	19.996	104.064	20.024	2.520	0.437
105.000	139.021	80.002	19.992	104.062	20.024	2.516	0.442
105.500	139.264	80.005	19.994	104.066	20.020	2.823	0.437
106.000	139.473	80.005	19.994	104.066	20.020	2.787	0.449
106.500	139.700	80.007	19.992	104.067	20.022	2.636	0.445
107.000	139.961	80.007	19.990	104.067	20.022	2.676	0.462
107.500	140.141	80.000	19.996	104.067	20.021	2.740	0.464
108.000	140.334	80.000	19.998	104.067	20.018	2.925	0.407
108.500	140.640	80.000	19.994	104.063	20.022	2.667	0.436
109.000	140.830	80.005	19.993	104.057	20.024	2.520	0.498
109.500	141.054	80.002	19.994	104.054	20.020	2.827	0.455
110.000	141.273	80.002	19.995	104.051	20.024	2.520	0.428
110.500	141.499	80.005	19.994	104.046	20.018	2.918	0.444
111.000	141.726	80.000	19.998	104.044	20.021	2.727	0.449
111.500	141.980	80.003	19.991	104.047	20.021	2.759	0.467
112.000	142.190	80.002	19.998	104.050	20.021	2.750	0.472
112.500	142.387	80.007	19.997	104.049	20.022	2.686	0.435
113.000	142.636	80.002	19.993	104.052	20.023	2.616	0.427
113.500	142.865	80.007	19.994	104.052	20.024	2.556	0.462
114.000	143.070	80.007	19.992	104.048	20.021	2.758	0.455
114.500	143.257	80.003	19.995	104.043	20.021	2.741	0.413
115.000	143.551	80.003	19.999	104.046	20.025	2.477	0.436
115.500	143.752	80.003	19.993	104.041	20.023	2.595	0.488
116.000	144.027	80.007	19.994	104.039	20.023	2.603	0.486
116.500	144.220	80.010	19.995	104.040	20.024	2.521	0.473
117.000	144.505	80.000	19.997	104.042	20.019	2.847	0.473
117.500	144.684	79.999	19.994	104.038	20.019	2.902	0.471
118.000	144.918	80.005	19.994	104.042	20.022	2.655	0.438
118.500	145.199	80.004	19.995	104.047	20.026	2.424	0.464
119.000	145.400	80.004	19.995	104.049	20.027	2.335	0.499
119.500	145.658	80.006	19.994	104.045	20.022	2.669	0.471
120.000	145.833	80.002	19.996	104.045	20.021	2.718	0.446
120.500	146.093	80.003	19.995	104.046	20.023	2.622	0.434
121.000	146.349	79.999	19.997	104.048	20.023	2.623	0.475
121.500	146.597	80.011	19.994	104.051	20.026	2.410	0.510
122.000	146.809	80.002	19.995	104.052	20.022	2.648	0.482
122.501	147.037	80.014	19.993	104.050	20.016	3.066	0.450
123.001	147.266	80.004	19.994	104.051	20.020	2.793	0.448
123.501	147.495	80.010	19.993	104.047	20.024	2.497	0.457
124.000	147.743	80.013	19.991	104.048	20.020	2.770	0.468
124.500	147.966	80.004	19.993	104.054	20.024	2.535	0.475
125.000	148.162	80.000	19.995	104.063	20.022	2.646	0.445
125.500	148.456	79.998	19.993	104.058	20.024	2.497	0.454
126.000	148.665	79.999	19.995	104.057	20.023	2.618	0.496
126.500	148.927	80.011	19.992	104.049	20.022	2.646	0.487
127.000	149.136	79.999	19.995	104.042	20.023	2.563	0.471
127.500	149.387	79.998	19.994	104.032	20.023	2.567	0.465
128.000	149.653	80.013	19.993	104.037	20.025	2.452	0.489
128.500	149.915	79.997	19.995	104.041	20.021	2.710	0.523
129.000	150.114	80.005	19.995	104.047	20.023	2.616	0.494
129.500	150.347	80.004	19.995	104.049	20.024	2.535	0.446
130.000	150.604	80.004	19.995	104.054	20.023	2.563	0.462
130.500	150.830	80.004	19.995	104.056	20.023	2.595	0.486
131.000	151.053	79.999	19.995	104.052	20.025	2.440	0.466
131.500	151.289	80.000	19.994	104.047	20.026	2.423	0.454
132.000	151.543	80.010	19.993	104.045	20.028	2.265	0.474
132.500	151.778	80.009	19.993	104.042	20.025	2.448	0.489
133.000	152.007	80.013	19.995	104.038	20.023	2.578	0.477
133.500	152.230	80.000	19.995	104.041	20.021	2.706	0.458
134.000	152.488	80.002	19.995	104.040	20.027	2.318	0.467
134.500	152.722	80.010	19.988	104.040	20.024	2.524	0.487
135.000	152.992	80.004	19.994	104.046	20.020	2.825	0.498
135.500	153.208	80.007	19.995	104.049	20.022	2.652	0.495
136.000	153.466	80.010	19.993	104.044	20.023	2.627	0.480
136.500	153.658	80.008	19.991	104.046	20.018	2.919	0.462
137.000	153.912	80.003	19.993	104.046	20.019	2.878	0.448
137.500	154.150	80.009	19.995	104.039	20.021	2.712	0.469
138.000	154.395	80.006	19.993	104.042	20.020	2.804	0.487
138.500	154.632	80.004	19.995	104.049	20.021	2.721	0.483
139.000	154.896	80.004	19.993	104.053	20.019	2.840	0.492
139.500	155.129	80.005	19.993	104.056	20.023	2.578	0.499
140.000	155.378	80.001	19.995	104.056	20.025	2.452	0.489
140.500	155.600	79.998	19.996	104.048	20.022	2.663	0.476
141.000	155.860	80.010	19.995	104.041	20.027	2.329	0.476
141.500	156.119	80.001	19.997	104.036	20.023	2.627	0.501
142.000	156.354	80.004	19.994	104.033	20.023	2.631	0.507
142.500	156.609	80.004	19.994	104.037	20.023	2.618	0.492
143.000	156.798	80.002	19.996	104.042	20.026	2.378	0.467
143.500	157.086	79.996	19.994	104.046	20.024	2.505	0.460
144.000	157.313	80.003	19.994	104.046	20.029	2.203	0.496
144.500	157.595	80.014	19.991	104.052	20.027	2.352	0.512
145.000	157.826	80.006	19.991	104.052	20.023	2.631	0.511
145.500	158.065	80.005	19.993	104.049	20.026	2.381	0.491
146.000	158.305	80.009	19.993	104.046	20.027	2.328	0.475
146.500	158.564	80.004	19.994	104.047	20.024	2.520	0.489
147.000	158.773	80.000	19.997	104.040	20.026	2.392	0.483
147.500	159.040	80.003	19.997	104.037	20.021	2.753	0.472
148.000	159.261	80.007	19.991	104.036	20.025	2.440	0.482
148.500	159.526	80.004	19.994	104.036	20.026	2.408	0.487
149.000	159.762	80.005	19.992	104.034	20.026	2.371	0.494
149.500	159.991	80.000	19.996	104.036	20.026	2.410	0.483
150.000	160.251	80.004	19.990	104.039	20.028	2.261	0.477
150.500	160.501	80.005	19.986	104.044	20.029	2.158	0.500
151.000	160.709	80.002	19.992	104.047	20.023	2.614	0.483
151.500	160.960	80.004	19.993	104.049	20.024	2.557	0.458
152.000	161.225	80.004	19.993	104.050	20.023	2.604	0.488
152.500	161.439	80.007	19.994	104.047	20.024	2.559	0.498
153.000	161.739	80.003	19.996	104.044	20.025	2.466	0.496
153.500	162.004	79.998	19.998	104.040	20.025	2.480	0.539
154.000	162.212	80.011	19.992	104.040	20.025	2.431	0.519
154.500	162.480	80.005	19.993	104.044	20.025	2.489	0.475
155.000	162.684	80.004	19.995	104.052	20.026	2.369	0.474
155.500	162.950	80.005	19.994	104.054	20.025	2.489	0.471
156.000	163.212	80.004	19.994	104.058	20.023	2.631	0.499
156.500	163.446	80.003	19.992	104.057	20.024	2.514	0.512
157.000	163.736	80.010	19.992	104.050	20.025	2.427	0.510
157.500	163.953	80.004	19.994	104.044	20.026	2.401	0.515
158.000	164.230	80.006	19.990	104.044	20.026	2.367	0.500
158.500	164.502	80.005	19.993	104.041	20.026	2.359	0.521
159.000	164.767	80.008	19.994	104.040	20.029	2.186	0.543
159.500	165.000	80.005	19.992	104.041	20.025	2.438	0.518
160.000	165.291	80.008	19.992	104.042	20.025	2.436	0.511
160.500	165.484	80.008	19.992	104.037	20.023	2.599	0.504
161.000	165.783	80.009	19.989	104.036	20.026	2.389	0.488
161.500	166.010	80.003	19.996	104.040	20.026	2.416	0.509
162.000	166.240	79.998	20.000	104.038	20.027	2.352	0.492
162.500	166.511	80.006	19.999	104.033	20.027	2.320	0.479
163.000	166.729	80.013	19.992	104.032	20.025	2.431	0.495
163.500	167.056	80.002	19.990	104.031	20.030	2.124	0.517
164.000	167.277	80.007	19.990	104.027	20.028	2.222	0.546
164.500	167.515	80.001	19.993	104.027	20.026	2.391	0.503
165.000	167.778	80.009	19.992	104.028	20.025	2.470	0.480
165.500	168.046	79.993	19.991	104.030	20.023	2.610	0.517
166.000	168.256	80.001	19.993	104.033	20.026	2.370	0.504
166.500	168.487	80.000	19.995	104.033	20.027	2.310	0.459
167.000	168.736	80.006	19.991	104.031	20.026	2.365	0.460
167.500	169.009	80.009	19.993	104.035	20.028	2.286	0.501
168.000	169.264	80.005	19.996	104.036	20.028	2.224	0.525
168.500	169.530	79.992	19.995	104.032	20.030	2.129	0.525
169.000	169.773	80.001	19.991	104.029	20.030	2.142	0.515
169.500	170.019	80.006	19.991	104.030	20.029	2.197	0.499
170.000	170.290	80.006	19.992	104.031	20.026	2.378	0.503
170.500	170.531	80.006	19.992	104.030	20.028	2.219	0.514
171.000	170.785	80.006	19.993	104.031	20.029	2.187	0.504
171.500	171.032	80.015	19.990	104.035	20.025	2.427	0.498
172.000	171.303	80.000	19.996	104.037	20.027	2.334	0.509
