Sample ID:	C:\MCC\MCC Cal\Test\HWF_MCC_30K_min_211104_R1.txt
Sample Weight (mg):	4.4
Heating Rate (C/s):	1
Combustor Temp (C):	900
N2 Flow Rate (cc/min):	80
O2 Flow Rate (cc/min):	20
Calibration File:	C:\MCC\MCC Cal\Coeff1 JN10440_30_210304.txt.txt
T Correction Coefficients:	0	1.024463	0
Time Shift (s):	14
*
Time (s)	Temperature (C)	N2 flow rate (cc/min)	O2 flow rate (cc/min)	Flow Rate (cc/min)	Oxygen (%)	HRR (W/g)	Heating rate (C/s)
0.000	106.139	80.012	19.994	103.005	20.014	-0.139	0.028
0.500	106.154	80.007	19.995	103.006	20.013	-0.037	0.006
1.000	106.148	80.011	19.993	103.007	20.013	-0.071	0.001
1.500	106.121	80.008	19.995	103.010	20.018	-0.416	-0.012
2.000	106.134	80.009	19.993	103.013	20.012	-0.008	-0.024
2.500	106.159	80.008	19.997	103.015	20.007	0.355	0.012
3.000	106.150	80.010	19.995	103.015	20.012	-0.018	0.027
3.500	106.168	80.011	19.996	103.014	20.014	-0.161	0.012
4.000	106.157	80.011	19.997	103.014	20.014	-0.104	0.008
4.500	106.138	80.010	19.996	103.014	20.012	-0.002	-0.011
5.000	106.129	80.008	19.995	103.014	20.011	0.055	-0.029
5.500	106.164	80.011	19.995	103.013	20.011	0.077	-0.001
6.000	106.139	80.010	19.994	103.014	20.009	0.235	0.019
6.500	106.123	80.010	19.995	103.018	20.011	0.116	-0.016
7.000	106.114	80.009	19.995	103.028	20.009	0.257	-0.033
7.500	106.153	80.010	19.996	103.037	20.007	0.385	0.003
8.000	106.100	80.009	19.994	103.046	20.003	0.663	0.008
8.500	106.116	80.010	19.994	103.060	20.005	0.553	-0.026
9.000	106.106	80.008	19.994	103.074	19.998	1.003	-0.016
9.500	106.140	80.009	19.993	103.091	20.001	0.832	0.015
10.000	106.158	80.007	19.994	103.118	20.000	0.909	0.038
10.500	106.158	80.007	19.994	103.146	19.998	1.058	0.035
11.000	106.154	80.008	19.993	103.171	19.992	1.468	0.007
11.500	106.208	80.006	19.994	103.192	19.992	1.447	0.023
12.000	106.187	80.006	19.995	103.207	19.987	1.822	0.042
12.501	106.254	80.005	19.995	103.214	19.985	1.950	0.039
13.001	106.272	80.006	19.995	103.220	19.983	2.156	0.065
13.501	106.303	80.006	19.994	103.228	19.986	1.911	0.067
14.000	106.323	80.006	19.994	103.233	19.980	2.372	0.050
14.500	106.376	80.008	19.995	103.233	19.985	1.982	0.062
15.000	106.438	80.005	19.995	103.233	19.978	2.529	0.094
15.500	106.479	80.007	19.995	103.236	19.974	2.797	0.109
16.000	106.493	80.006	19.994	103.237	19.972	2.970	0.079
16.500	106.580	80.009	19.995	103.243	19.972	2.919	0.078
17.000	106.577	80.010	19.995	103.256	19.972	2.929	0.092
17.500	106.650	80.007	19.994	103.267	19.971	3.033	0.077
18.000	106.697	80.008	19.995	103.271	19.965	3.432	0.095
18.500	106.762	80.007	19.993	103.275	19.961	3.739	0.117
19.000	106.800	80.008	19.994	103.279	19.963	3.629	0.108
19.500	106.889	80.007	19.995	103.281	19.963	3.621	0.115
20.000	106.939	80.008	19.993	103.284	19.960	3.830	0.133
20.500	107.036	80.006	19.994	103.290	19.964	3.519	0.143
21.000	107.091	80.007	19.995	103.292	19.961	3.767	0.150
21.500	107.180	80.008	19.994	103.292	19.959	3.926	0.148
22.000	107.233	80.005	19.995	103.296	19.956	4.088	0.143
22.500	107.327	80.009	19.994	103.301	19.958	3.992	0.145
23.001	107.418	80.008	19.996	103.310	19.956	4.114	0.166
23.501	107.518	80.008	19.995	103.321	19.954	4.242	0.188
24.000	107.631	80.008	19.994	103.330	19.958	3.967	0.201
24.500	107.752	80.007	19.994	103.341	19.955	4.216	0.224
25.000	107.815	80.009	19.994	103.348	19.948	4.714	0.210
25.500	107.948	80.007	19.996	103.351	19.951	4.489	0.190
26.000	108.045	80.009	19.995	103.353	19.946	4.863	0.213
26.500	108.158	80.007	19.994	103.357	19.945	4.922	0.220
27.000	108.252	80.011	19.994	103.357	19.945	4.902	0.209
27.500	108.405	80.007	19.995	103.364	19.945	4.949	0.227
28.000	108.487	80.011	19.995	103.372	19.943	5.070	0.241
28.500	108.632	80.007	19.994	103.381	19.943	5.100	0.231
29.000	108.779	80.007	19.992	103.390	19.935	5.630	0.260
29.500	108.876	80.006	19.995	103.397	19.943	5.076	0.269
30.000	109.004	80.008	19.994	103.402	19.937	5.495	0.235
30.500	109.125	80.011	19.995	103.405	19.932	5.871	0.237
31.000	109.280	80.008	19.993	103.408	19.939	5.354	0.262
31.500	109.445	80.008	19.994	103.408	19.931	5.930	0.298
32.000	109.571	80.007	19.994	103.409	19.934	5.717	0.306
32.501	109.744	80.006	19.994	103.417	19.932	5.892	0.295
33.001	109.931	80.009	19.994	103.424	19.936	5.590	0.330
33.500	110.080	80.008	19.995	103.430	19.931	5.955	0.348
34.000	110.245	80.010	19.994	103.437	19.930	6.046	0.324
34.500	110.420	80.009	19.996	103.442	19.927	6.211	0.327
35.000	110.539	80.008	19.995	103.443	19.930	5.999	0.317
35.500	110.737	80.009	19.995	103.443	19.929	6.086	0.305
36.000	110.900	80.008	19.994	103.443	19.929	6.078	0.339
36.500	111.107	80.007	19.995	103.443	19.929	6.099	0.366
37.000	111.257	80.007	19.994	103.444	19.929	6.111	0.364
37.500	111.485	80.007	19.996	103.441	19.929	6.103	0.368
38.000	111.684	80.009	19.995	103.435	19.928	6.166	0.402
38.501	111.889	80.007	19.994	103.429	19.929	6.117	0.415
39.001	112.048	80.006	19.995	103.424	19.926	6.337	0.384
39.500	112.252	80.008	19.995	103.419	19.929	6.127	0.364
40.000	112.468	80.007	19.995	103.419	19.926	6.298	0.391
40.500	112.665	80.007	19.995	103.425	19.925	6.360	0.416
41.000	112.862	80.006	19.995	103.431	19.926	6.303	0.404
41.500	113.092	80.007	19.996	103.436	19.924	6.467	0.411
42.001	113.267	80.005	19.996	103.441	19.925	6.390	0.416
42.501	113.517	80.008	19.996	103.441	19.924	6.447	0.415
43.000	113.722	80.006	19.995	103.434	19.926	6.306	0.440
43.501	113.952	80.007	19.995	103.432	19.926	6.290	0.444
44.001	114.198	80.006	19.996	103.432	19.927	6.221	0.455
44.500	114.461	80.009	19.997	103.433	19.926	6.312	0.492
45.000	114.659	80.008	19.995	103.437	19.925	6.420	0.485
45.500	114.873	80.007	19.996	103.443	19.928	6.178	0.437
46.000	115.148	80.006	19.996	103.444	19.923	6.526	0.451
46.500	115.398	80.005	19.996	103.443	19.924	6.497	0.507
47.000	115.591	80.007	19.996	103.441	19.925	6.400	0.484
47.500	115.851	80.008	19.995	103.440	19.924	6.438	0.448
48.000	116.109	80.007	19.996	103.440	19.923	6.503	0.486
48.500	116.361	80.007	19.995	103.441	19.928	6.180	0.514
49.000	116.588	80.006	19.995	103.442	19.924	6.487	0.494
49.500	116.851	80.006	19.995	103.445	19.927	6.273	0.485
50.000	117.121	80.007	19.996	103.446	19.924	6.460	0.511
50.500	117.393	80.007	19.996	103.444	19.926	6.330	0.537
51.000	117.651	80.007	19.995	103.440	19.921	6.653	0.536
51.500	117.930	80.008	19.995	103.439	19.927	6.236	0.534
52.000	118.185	80.007	19.997	103.439	19.927	6.238	0.535
52.500	118.463	80.007	19.995	103.441	19.922	6.604	0.533
53.000	118.751	80.008	19.996	103.443	19.924	6.481	0.550
53.500	118.967	80.007	19.996	103.447	19.925	6.384	0.535
54.000	119.249	80.006	19.994	103.448	19.924	6.481	0.501
54.500	119.555	80.006	19.995	103.448	19.922	6.624	0.543
55.000	119.796	80.007	19.996	103.448	19.926	6.294	0.568
55.500	120.093	80.008	19.995	103.448	19.921	6.685	0.543
56.000	120.376	80.008	19.996	103.449	19.921	6.687	0.559
56.500	120.629	80.007	19.995	103.449	19.929	6.085	0.558
57.000	120.986	80.009	19.996	103.449	19.924	6.496	0.573
57.500	121.280	80.009	19.995	103.449	19.925	6.389	0.630
58.000	121.554	80.009	19.994	103.450	19.923	6.546	0.609
58.500	121.853	80.007	19.996	103.450	19.927	6.232	0.570
59.000	122.152	80.007	19.996	103.450	19.923	6.541	0.586
59.500	122.454	80.009	19.995	103.451	19.919	6.863	0.600
60.000	122.803	80.007	19.996	103.454	19.923	6.555	0.626
60.500	123.061	80.009	19.995	103.454	19.922	6.637	0.629
61.000	123.392	80.009	19.996	103.454	19.923	6.561	0.598
61.501	123.680	80.009	19.996	103.455	19.918	6.922	0.604
62.001	123.977	80.008	19.996	103.457	19.918	6.938	0.602
62.500	124.323	80.010	19.995	103.459	19.920	6.740	0.614
63.000	124.638	80.007	19.995	103.465	19.915	7.115	0.652
63.500	124.974	80.007	19.996	103.472	19.922	6.639	0.656
64.000	125.285	80.008	19.995	103.477	19.917	6.971	0.649
64.500	125.567	80.008	19.996	103.478	19.919	6.795	0.620
65.000	125.914	80.008	19.996	103.475	19.919	6.863	0.611
65.500	126.254	80.007	19.996	103.474	19.921	6.649	0.658
66.000	126.600	80.008	19.995	103.472	19.914	7.208	0.687
66.500	126.910	80.008	19.995	103.471	19.924	6.483	0.671
67.000	127.278	80.007	19.995	103.473	19.913	7.235	0.667
67.500	127.610	80.007	19.996	103.472	19.916	7.045	0.689
68.000	127.941	80.009	19.996	103.467	19.921	6.648	0.682
68.501	128.253	80.007	19.997	103.461	19.919	6.854	0.653
69.001	128.639	80.007	19.995	103.457	19.918	6.870	0.670
69.500	128.960	80.007	19.996	103.454	19.920	6.724	0.702
70.000	129.307	80.006	19.996	103.459	19.920	6.726	0.687
70.500	129.675	80.008	19.997	103.461	19.920	6.751	0.691
71.000	130.034	80.007	19.996	103.465	19.918	6.924	0.721
71.500	130.328	80.007	19.996	103.465	19.921	6.658	0.690
72.000	130.691	80.007	19.995	103.464	19.920	6.771	0.655
72.500	131.079	80.007	19.996	103.463	19.920	6.745	0.704
73.000	131.391	80.008	19.996	103.465	19.916	7.025	0.726
73.500	131.732	80.007	19.996	103.466	19.917	6.944	0.676
74.000	132.108	80.008	19.997	103.468	19.920	6.769	0.684
74.500	132.445	80.007	19.995	103.467	19.916	7.080	0.715
75.000	132.855	80.007	19.996	103.465	19.919	6.820	0.730
75.500	133.179	80.007	19.996	103.466	19.921	6.694	0.741
76.000	133.534	80.008	19.997	103.467	19.919	6.849	0.707
76.500	133.899	80.009	19.996	103.467	19.919	6.794	0.699
77.000	134.281	80.007	19.995	103.470	19.919	6.835	0.734
77.501	134.650	80.008	19.996	103.474	19.916	7.041	0.749
78.001	135.081	80.006	19.995	103.473	19.923	6.532	0.776
78.500	135.459	80.007	19.995	103.474	19.922	6.636	0.804
79.001	135.801	80.006	19.996	103.474	19.917	6.974	0.764
79.501	136.158	80.008	19.996	103.473	19.917	6.949	0.709
80.000	136.535	80.008	19.996	103.471	19.917	6.941	0.717
80.500	136.947	80.008	19.995	103.466	19.922	6.581	0.761
81.000	137.310	80.007	19.995	103.462	19.915	7.147	0.782
81.500	137.696	80.009	19.996	103.460	19.920	6.766	0.762
82.000	138.070	80.008	19.994	103.458	19.917	6.998	0.755
82.500	138.471	80.011	19.996	103.459	19.919	6.839	0.768
83.000	138.840	80.010	19.994	103.460	19.918	6.929	0.772
83.500	139.226	80.009	19.995	103.464	19.914	7.175	0.762
84.000	139.669	80.009	19.995	103.465	19.916	7.038	0.792
84.500	140.040	80.011	19.996	103.467	19.915	7.105	0.821
85.000	140.454	80.010	19.994	103.469	19.913	7.246	0.800
85.501	140.828	80.011	19.996	103.470	19.919	6.855	0.787
86.001	141.234	80.009	19.995	103.464	19.917	6.999	0.784
86.500	141.601	80.009	19.995	103.458	19.923	6.525	0.776
87.000	142.046	80.011	19.996	103.455	19.920	6.766	0.792
87.500	142.408	80.011	19.994	103.449	19.914	7.171	0.810
88.000	142.819	80.008	19.994	103.446	19.916	7.051	0.790
88.500	143.225	80.012	19.995	103.445	19.919	6.794	0.795
89.000	143.599	80.010	19.995	103.448	19.923	6.522	0.799
89.500	144.019	80.011	19.995	103.449	19.922	6.638	0.787
90.000	144.423	80.010	19.994	103.449	19.921	6.660	0.809
90.500	144.854	80.009	19.995	103.450	19.925	6.401	0.829
91.000	145.292	80.009	19.994	103.450	19.920	6.719	0.852
91.500	145.697	80.009	19.994	103.449	19.921	6.688	0.856
92.000	146.123	80.008	19.996	103.448	19.921	6.658	0.837
92.500	146.488	80.008	19.994	103.447	19.918	6.933	0.811
93.000	146.907	80.008	19.995	103.448	19.919	6.863	0.788
93.500	147.302	80.009	19.995	103.451	19.919	6.847	0.798
94.000	147.735	80.009	19.994	103.454	19.919	6.833	0.820
94.500	148.156	80.008	19.995	103.456	19.916	7.065	0.841
95.000	148.587	80.008	19.996	103.458	19.924	6.432	0.853
95.500	148.996	80.006	19.994	103.459	19.915	7.130	0.846
96.000	149.399	80.006	19.996	103.460	19.920	6.786	0.826
96.500	149.856	80.007	19.995	103.457	19.920	6.758	0.836
97.000	150.261	80.007	19.994	103.457	19.918	6.910	0.862
97.500	150.663	80.006	19.997	103.455	19.917	6.979	0.835
98.000	151.091	80.005	19.995	103.456	19.922	6.633	0.818
98.500	151.509	80.007	19.995	103.453	19.919	6.804	0.838
99.000	151.936	80.008	19.996	103.452	19.918	6.904	0.846
99.500	152.376	80.006	19.996	103.450	19.918	6.904	0.856
100.000	152.797	80.009	19.995	103.450	19.919	6.864	0.864
100.500	153.212	80.008	19.995	103.451	19.922	6.591	0.849
101.000	153.663	80.007	19.995	103.453	19.919	6.846	0.851
101.500	154.098	80.007	19.995	103.453	19.917	6.962	0.876
102.000	154.494	80.007	19.994	103.458	19.918	6.878	0.858
102.500	154.942	80.006	19.996	103.459	19.922	6.626	0.837
103.000	155.389	80.007	19.996	103.456	19.917	6.978	0.870
103.500	155.794	80.007	19.995	103.454	19.920	6.770	0.874
104.000	156.213	80.008	19.994	103.458	19.913	7.289	0.838
104.500	156.651	80.007	19.996	103.456	19.917	6.976	0.841
105.000	157.110	80.007	19.996	103.455	19.916	7.049	0.877
105.500	157.555	80.007	19.995	103.457	19.920	6.719	0.900
106.000	157.990	80.009	19.996	103.457	19.917	6.998	0.892
106.500	158.420	80.009	19.995	103.454	19.918	6.935	0.872
107.000	158.845	80.007	19.995	103.451	19.921	6.695	0.860
107.500	159.301	80.008	19.996	103.452	19.918	6.898	0.868
108.000	159.704	80.008	19.996	103.453	19.917	6.982	0.870
108.500	160.180	80.009	19.995	103.452	19.921	6.703	0.869
109.000	160.628	80.008	19.996	103.453	19.918	6.876	0.902
109.500	161.085	80.009	19.996	103.454	19.921	6.697	0.914
110.000	161.514	80.008	19.996	103.453	19.915	7.130	0.895
110.500	161.984	80.008	19.995	103.450	19.920	6.786	0.892
111.000	162.391	80.008	19.995	103.449	19.922	6.579	0.888
111.500	162.871	80.007	19.996	103.449	19.925	6.369	0.882
112.000	163.312	80.007	19.995	103.446	19.916	7.022	0.904
112.500	163.766	80.007	19.994	103.446	19.923	6.522	0.908
113.000	164.235	80.007	19.996	103.446	19.918	6.937	0.909
113.500	164.696	80.008	19.995	103.447	19.923	6.571	0.926
114.000	165.129	80.008	19.996	103.449	19.922	6.613	0.912
114.500	165.595	80.006	19.995	103.449	19.921	6.709	0.897
115.000	166.070	80.008	19.994	103.448	19.918	6.912	0.920
115.500	166.536	80.007	19.995	103.448	19.919	6.803	0.942
116.000	167.013	80.006	19.995	103.449	19.919	6.833	0.942
116.500	167.468	80.008	19.996	103.447	19.920	6.723	0.937
117.000	167.895	80.007	19.994	103.446	19.921	6.687	0.906
117.500	168.357	80.007	19.995	103.447	19.922	6.630	0.885
118.000	168.823	80.008	19.995	103.447	19.921	6.681	0.909
118.501	169.291	80.008	19.994	103.446	19.920	6.738	0.931
119.001	169.762	80.005	19.995	103.447	19.921	6.691	0.937
119.500	170.225	80.006	19.997	103.447	19.922	6.589	0.936
120.000	170.636	80.008	19.993	103.447	19.920	6.790	0.904
120.500	171.112	80.008	19.994	103.447	19.921	6.689	0.880
121.000	171.608	80.006	19.994	103.447	19.919	6.860	0.929
121.500	172.100	80.005	19.994	103.448	19.917	6.994	0.980
122.000	172.558	80.007	19.994	103.448	19.923	6.542	0.969
122.500	173.048	80.006	19.996	103.449	19.917	6.996	0.949
123.000	173.472	80.006	19.995	103.449	19.916	7.028	0.931
123.501	173.976	80.007	19.995	103.449	19.921	6.715	0.921
124.001	174.464	80.007	19.995	103.449	19.916	7.045	0.960
124.501	174.937	80.007	19.993	103.450	19.914	7.216	0.977
125.001	175.403	80.007	19.995	103.451	19.918	6.870	0.950
125.501	175.848	80.008	19.994	103.451	19.919	6.805	0.925
126.001	176.336	80.008	19.995	103.451	19.919	6.829	0.922
126.500	176.755	80.007	19.995	103.451	19.921	6.656	0.920
127.000	177.274	80.007	19.994	103.450	19.919	6.843	0.922
127.500	177.748	80.009	19.997	103.449	19.919	6.829	0.965
128.000	178.249	80.004	19.994	103.449	19.917	6.970	0.984
128.500	178.756	80.008	19.995	103.449	19.918	6.888	0.991
129.000	179.225	80.009	19.995	103.449	19.922	6.583	0.992
129.500	179.710	80.005	19.995	103.449	19.918	6.917	0.965
130.000	180.165	80.008	19.995	103.449	19.919	6.837	0.947
130.500	180.666	80.008	19.995	103.449	19.921	6.652	0.948
131.000	181.122	80.007	19.993	103.449	19.919	6.862	0.957
131.500	181.628	80.008	19.995	103.449	19.920	6.786	0.959
132.000	182.127	80.009	19.995	103.450	19.919	6.797	0.983
132.500	182.586	80.009	19.997	103.449	19.918	6.884	0.981
133.000	183.047	80.006	19.994	103.450	19.923	6.567	0.939
133.500	183.575	80.007	19.995	103.450	19.922	6.608	0.954
134.000	184.061	80.008	19.995	103.450	19.920	6.755	1.001
134.500	184.536	80.006	19.995	103.451	19.922	6.624	0.988
135.000	185.040	80.007	19.996	103.451	19.920	6.783	0.970
135.500	185.545	80.007	19.995	103.450	19.915	7.152	0.994
136.000	186.026	80.007	19.997	103.450	19.917	6.956	0.997
136.500	186.539	80.008	19.994	103.449	19.919	6.826	0.990
137.000	187.035	80.006	19.994	103.448	19.917	6.997	1.001
137.500	187.582	80.007	19.996	103.447	19.921	6.712	1.026
138.000	188.017	80.006	19.996	103.447	19.916	7.062	1.013
138.500	188.506	80.008	19.995	103.445	19.911	7.417	0.953
139.000	189.050	80.007	19.994	103.445	19.920	6.760	0.978
139.500	189.481	80.008	19.995	103.445	19.921	6.705	1.004
140.000	190.028	80.007	19.995	103.446	19.918	6.882	0.977
140.500	190.517	80.006	19.997	103.446	19.918	6.923	1.007
141.000	191.033	80.009	19.995	103.448	19.920	6.772	1.020
141.500	191.520	80.008	19.996	103.448	19.922	6.573	1.004
142.000	191.988	80.008	19.996	103.449	19.918	6.902	0.978
142.500	192.517	80.006	19.997	103.449	19.922	6.595	0.976
143.000	193.013	80.008	19.996	103.447	19.917	6.988	1.011
143.500	193.502	80.009	19.996	103.445	19.919	6.825	1.005
144.000	193.969	80.010	19.996	103.443	19.920	6.789	0.970
144.500	194.545	80.010	19.995	103.437	19.920	6.720	0.999
145.000	195.039	80.008	19.996	103.437	19.920	6.734	1.056
145.500	195.521	80.008	19.995	103.437	19.917	7.010	1.023
146.000	196.001	80.007	19.995	103.437	19.922	6.607	0.969
146.500	196.525	80.008	19.994	103.433	19.916	7.059	0.984
147.000	196.992	80.007	19.995	103.438	19.918	6.906	0.998
147.500	197.493	80.010	19.994	103.439	19.920	6.741	0.979
148.000	197.970	80.009	19.996	103.434	19.919	6.840	0.973
148.500	198.502	80.008	19.994	103.431	19.923	6.528	0.994
149.000	199.023	80.008	19.995	103.434	19.914	7.158	1.031
149.500	199.513	80.009	19.995	103.427	19.918	6.869	1.032
150.000	199.991	80.007	19.995	103.419	19.915	7.121	0.990
150.500	200.498	80.008	19.997	103.417	19.919	6.826	0.977
151.000	201.019	80.009	19.995	103.418	19.913	7.231	1.006
151.500	201.523	80.006	19.996	103.416	19.915	7.098	1.026
152.000	202.050	80.009	19.994	103.416	19.917	6.998	1.028
152.500	202.542	80.009	19.996	103.417	19.912	7.304	1.025
153.000	203.074	80.009	19.996	103.420	19.916	7.062	1.022
153.500	203.564	80.010	19.997	103.419	19.915	7.148	1.023
154.000	204.093	80.008	19.996	103.415	19.916	7.050	1.020
154.500	204.570	80.009	19.995	103.414	19.916	7.051	1.012
155.000	205.118	80.011	19.995	103.416	19.914	7.159	1.016
155.500	205.625	80.008	19.996	103.414	19.913	7.238	1.040
156.000	206.128	80.010	19.996	103.416	19.910	7.519	1.033
156.500	206.673	80.010	19.995	103.423	19.915	7.151	1.030
157.000	207.151	80.008	19.997	103.428	19.917	6.976	1.036
157.500	207.669	80.010	19.998	103.425	19.913	7.244	1.009
158.000	208.221	80.009	19.998	103.423	19.910	7.478	1.033
158.500	208.715	80.008	19.995	103.420	19.911	7.425	1.058
159.000	209.198	80.010	19.996	103.413	19.913	7.272	1.012
159.500	209.710	80.008	19.996	103.408	19.909	7.526	0.986
160.000	210.280	80.009	19.995	103.407	19.908	7.667	1.039
160.500	210.724	80.010	19.995	103.407	19.913	7.292	1.048
161.000	211.291	80.009	19.994	103.407	19.909	7.541	1.012
161.500	211.773	80.009	19.997	103.412	19.913	7.268	1.030
162.000	212.321	80.010	19.997	103.413	19.906	7.750	1.040
162.500	212.810	80.009	19.996	103.414	19.907	7.677	1.034
163.000	213.370	80.009	19.998	103.414	19.910	7.451	1.043
163.500	213.814	80.009	19.995	103.413	19.912	7.316	1.027
164.000	214.333	80.010	19.995	103.408	19.910	7.475	0.983
164.500	214.844	80.010	19.996	103.409	19.906	7.811	0.996
165.000	215.356	80.009	19.996	103.411	19.909	7.534	1.026
165.500	215.874	80.011	19.996	103.414	19.909	7.541	1.027
166.000	216.388	80.008	19.996	103.420	19.910	7.490	1.031
166.500	216.907	80.010	19.997	103.421	19.906	7.765	1.032
167.000	217.441	80.008	19.997	103.419	19.907	7.681	1.044
167.500	217.946	80.010	19.996	103.414	19.905	7.860	1.046
168.000	218.463	80.010	19.996	103.411	19.908	7.609	1.030
168.500	218.995	80.010	19.998	103.405	19.902	8.069	1.036
169.000	219.493	80.009	19.996	103.404	19.900	8.210	1.039
169.500	220.024	80.009	19.995	103.406	19.900	8.198	1.029
170.000	220.516	80.010	19.996	103.407	19.905	7.848	1.026
170.501	221.030	80.010	19.997	103.406	19.900	8.237	1.015
171.000	221.573	80.009	19.995	103.408	19.902	8.076	1.031
171.500	222.083	80.009	19.996	103.408	19.896	8.542	1.055
172.000	222.578	80.010	19.995	103.406	19.891	8.890	1.029
172.500	223.094	80.010	19.995	103.406	19.897	8.426	1.008
