Sample ID:	C:\MCC\MCC Cal\Test\Window_Screen_MCC_30K_min_211203_R3.txt
Sample Weight (mg):	4.33
Heating Rate (C/s):	0.5
Combustor Temp (C):	900
N2 Flow Rate (cc/min):	80
O2 Flow Rate (cc/min):	20
Calibration File:	C:\MCC\MCC Cal\Coeff1 JN10440_30_210304.txt.txt
T Correction Coefficients:	0	1.024463	0
Time Shift (s):	14
*
Time (s)	Temperature (C)	N2 flow rate (cc/min)	O2 flow rate (cc/min)	Flow Rate (cc/min)	Oxygen (%)	HRR (W/g)	Heating rate (C/s)
0.000	110.658	80.007	19.994	103.144	20.307	0.265	-0.034
0.500	110.691	80.005	19.995	103.143	20.308	0.181	-0.017
1.000	110.696	80.006	19.994	103.143	20.305	0.431	0.022
1.500	110.697	80.005	19.994	103.144	20.307	0.238	0.022
2.000	110.717	80.004	19.993	103.144	20.304	0.468	0.013
2.500	110.712	80.004	19.994	103.141	20.308	0.195	0.018
3.000	110.713	80.005	19.993	103.141	20.308	0.230	0.006
3.500	110.687	80.005	19.994	103.141	20.308	0.168	-0.015
4.000	110.683	80.005	19.996	103.141	20.306	0.349	-0.028
4.500	110.687	80.005	19.995	103.142	20.309	0.111	-0.014
5.000	110.672	80.005	19.994	103.142	20.312	-0.074	-0.005
5.500	110.653	80.005	19.994	103.141	20.311	-0.055	-0.023
6.000	110.630	80.005	19.995	103.141	20.311	-0.004	-0.038
6.500	110.669	80.005	19.993	103.140	20.312	-0.111	-0.013
7.000	110.621	80.004	19.995	103.140	20.312	-0.131	0.004
7.500	110.675	80.007	19.993	103.140	20.313	-0.142	-0.001
8.000	110.685	80.006	19.993	103.142	20.313	-0.170	0.035
8.500	110.642	80.004	19.992	103.142	20.313	-0.181	0.015
9.000	110.635	80.003	19.992	103.143	20.312	-0.113	-0.041
9.500	110.661	80.006	19.994	103.145	20.313	-0.172	-0.016
10.001	110.619	80.005	19.993	103.145	20.311	-0.018	0.001
10.501	110.631	80.008	19.994	103.146	20.312	-0.066	-0.023
11.001	110.634	80.006	19.994	103.147	20.317	-0.462	-0.007
11.501	110.628	80.004	19.993	103.148	20.314	-0.236	0.006
12.000	110.642	80.006	19.993	103.154	20.316	-0.361	0.002
12.500	110.607	80.005	19.994	103.162	20.313	-0.183	-0.006
13.001	110.596	80.007	19.994	103.168	20.314	-0.273	-0.034
13.501	110.584	80.004	19.994	103.174	20.314	-0.242	-0.034
14.001	110.599	80.004	19.994	103.177	20.316	-0.425	-0.010
14.501	110.566	80.006	19.993	103.173	20.313	-0.160	-0.008
15.001	110.573	80.006	19.992	103.169	20.312	-0.123	-0.022
15.501	110.577	80.004	19.992	103.167	20.313	-0.191	-0.007
16.001	110.587	80.005	19.994	103.167	20.312	-0.119	0.013
16.500	110.631	80.004	19.995	103.165	20.313	-0.189	0.034
17.000	110.615	80.004	19.996	103.168	20.312	-0.099	0.040
17.500	110.575	80.004	19.994	103.169	20.313	-0.166	-0.014
18.000	110.621	80.005	19.995	103.167	20.315	-0.294	-0.024
18.500	110.631	80.005	19.994	103.165	20.314	-0.218	0.031
19.000	110.647	80.005	19.995	103.167	20.312	-0.103	0.040
19.500	110.642	80.003	19.993	103.169	20.314	-0.226	0.018
20.001	110.635	80.004	19.994	103.171	20.310	0.072	-0.000
20.501	110.649	80.005	19.994	103.174	20.315	-0.287	-0.003
21.000	110.683	80.005	19.994	103.177	20.312	-0.115	0.028
21.501	110.660	80.002	19.993	103.179	20.310	0.074	0.030
22.001	110.688	80.003	19.994	103.179	20.308	0.228	0.008
22.501	110.657	80.004	19.996	103.178	20.311	0.002	0.001
23.001	110.668	80.004	19.995	103.176	20.309	0.162	-0.011
23.500	110.701	80.005	19.995	103.170	20.311	-0.057	0.012
24.000	110.688	80.004	19.993	103.164	20.309	0.111	0.032
24.500	110.701	80.005	19.994	103.161	20.309	0.105	0.010
25.000	110.749	80.004	19.997	103.161	20.313	-0.150	0.030
25.500	110.742	80.005	19.996	103.162	20.309	0.115	0.051
26.000	110.763	80.005	19.995	103.167	20.309	0.144	0.027
26.500	110.784	80.006	19.995	103.178	20.310	0.080	0.028
27.001	110.790	80.004	19.995	103.186	20.312	-0.066	0.035
27.502	110.789	80.006	19.996	103.192	20.311	-0.031	0.016
28.000	110.829	80.005	19.997	103.200	20.311	0.010	0.022
28.500	110.824	80.005	19.997	103.208	20.307	0.249	0.037
29.000	110.825	80.006	19.996	103.216	20.306	0.353	0.016
29.500	110.800	80.006	19.996	103.225	20.306	0.337	-0.013
30.000	110.806	80.005	19.994	103.233	20.307	0.296	-0.022
30.500	110.804	80.005	19.995	103.238	20.303	0.590	-0.008
31.000	110.849	80.007	19.995	103.242	20.306	0.359	0.024
31.500	110.870	80.005	19.996	103.239	20.304	0.468	0.055
32.001	110.881	80.007	19.994	103.231	20.304	0.511	0.049
32.501	110.864	80.006	19.994	103.226	20.303	0.536	0.012
33.001	110.918	80.006	19.995	103.222	20.304	0.505	0.016
33.501	110.908	80.006	19.996	103.220	20.305	0.456	0.041
34.001	110.941	80.006	19.995	103.227	20.298	0.947	0.034
34.501	111.001	80.005	19.996	103.236	20.299	0.854	0.058
35.001	110.972	80.006	19.993	103.237	20.297	0.984	0.062
35.501	110.998	80.006	19.996	103.245	20.299	0.869	0.014
36.000	111.051	80.006	19.995	103.249	20.296	1.081	0.038
36.500	111.074	80.006	19.994	103.251	20.295	1.155	0.077
37.000	111.055	80.007	19.995	103.252	20.295	1.134	0.040
37.500	111.141	80.005	19.995	103.257	20.294	1.225	0.035
38.001	111.186	80.005	19.994	103.258	20.294	1.255	0.100
38.501	111.209	80.007	19.995	103.258	20.296	1.058	0.100
39.001	111.225	80.005	19.994	103.258	20.291	1.465	0.053
39.500	111.279	80.006	19.994	103.257	20.292	1.404	0.054
40.001	111.314	80.006	19.994	103.261	20.293	1.295	0.080
40.501	111.344	80.006	19.994	103.265	20.293	1.352	0.077
41.000	111.400	80.006	19.994	103.265	20.293	1.330	0.075
41.500	111.456	80.005	19.994	103.265	20.292	1.394	0.099
42.000	111.468	80.007	19.995	103.268	20.292	1.381	0.090
42.500	111.505	80.006	19.994	103.263	20.289	1.585	0.059
43.000	111.531	80.006	19.994	103.258	20.291	1.498	0.056
43.500	111.574	80.006	19.995	103.256	20.289	1.626	0.066
44.000	111.608	80.005	19.997	103.255	20.289	1.622	0.073
44.501	111.678	80.006	19.996	103.252	20.288	1.708	0.091
45.001	111.692	80.006	19.994	103.253	20.287	1.739	0.094
45.501	111.798	80.005	19.996	103.259	20.287	1.776	0.102
46.001	111.796	80.004	19.995	103.266	20.285	1.938	0.112
46.501	111.849	80.005	19.994	103.274	20.288	1.727	0.078
47.000	111.935	80.007	19.994	103.279	20.288	1.673	0.095
47.500	111.948	80.005	19.995	103.285	20.287	1.757	0.118
48.000	111.989	80.005	19.994	103.289	20.286	1.817	0.076
48.500	112.057	80.006	19.994	103.291	20.285	1.922	0.082
49.000	112.090	80.006	19.994	103.296	20.281	2.175	0.105
49.500	112.163	80.005	19.995	103.306	20.285	1.943	0.103
50.000	112.200	80.005	19.995	103.314	20.285	1.924	0.107
50.500	112.280	80.004	19.995	103.322	20.285	1.908	0.113
51.001	112.287	80.005	19.995	103.328	20.287	1.737	0.103
51.501	112.387	80.006	19.995	103.332	20.283	2.064	0.097
52.000	112.463	80.005	19.995	103.332	20.287	1.731	0.141
52.500	112.524	80.005	19.996	103.332	20.286	1.836	0.157
53.000	112.600	80.006	19.993	103.333	20.283	2.054	0.137
53.500	112.621	80.006	19.995	103.333	20.285	1.879	0.117
54.000	112.699	80.004	19.995	103.333	20.285	1.940	0.098
54.500	112.775	80.006	19.995	103.333	20.284	1.996	0.127
55.000	112.817	80.005	19.996	103.334	20.284	1.998	0.136
55.500	112.905	80.005	19.995	103.333	20.284	1.959	0.124
56.000	112.963	80.005	19.996	103.333	20.280	2.265	0.138
56.500	113.078	80.006	19.996	103.332	20.279	2.346	0.159
57.001	113.138	80.006	19.995	103.333	20.280	2.268	0.174
57.501	113.225	80.007	19.995	103.336	20.279	2.383	0.161
58.001	113.305	80.006	19.995	103.338	20.279	2.364	0.157
58.500	113.428	80.007	19.995	103.339	20.277	2.475	0.184
59.000	113.527	80.007	19.995	103.340	20.280	2.265	0.213
59.500	113.553	80.008	19.995	103.344	20.278	2.450	0.174
60.000	113.659	80.008	19.995	103.344	20.278	2.442	0.129
60.500	113.758	80.007	19.996	103.348	20.278	2.442	0.168
61.001	113.812	80.006	19.994	103.351	20.278	2.471	0.179
61.502	113.973	80.006	19.996	103.356	20.276	2.580	0.183
62.001	114.053	80.006	19.994	103.361	20.277	2.506	0.228
62.500	114.147	80.006	19.996	103.364	20.282	2.149	0.208
63.001	114.212	80.006	19.995	103.361	20.279	2.366	0.167
63.501	114.281	80.007	19.994	103.357	20.279	2.397	0.147
64.001	114.456	80.006	19.994	103.351	20.282	2.149	0.189
64.501	114.577	80.006	19.994	103.345	20.277	2.478	0.270
65.000	114.650	80.007	19.995	103.337	20.281	2.229	0.245
65.500	114.757	80.006	19.995	103.336	20.278	2.403	0.187
66.000	114.871	80.006	19.994	103.338	20.278	2.434	0.200
66.500	114.982	80.006	19.995	103.345	20.278	2.445	0.223
67.001	115.070	80.006	19.994	103.350	20.280	2.303	0.212
67.501	115.161	80.006	19.994	103.354	20.280	2.317	0.189
68.000	115.291	80.008	19.993	103.352	20.277	2.513	0.200
68.500	115.392	80.006	19.995	103.350	20.276	2.564	0.226
69.000	115.511	80.004	19.994	103.344	20.278	2.463	0.225
69.500	115.641	80.006	19.994	103.340	20.278	2.441	0.234
70.000	115.750	80.006	19.994	103.338	20.279	2.328	0.244
70.500	115.837	80.005	19.994	103.338	20.277	2.515	0.217
71.001	115.929	80.005	19.994	103.340	20.280	2.305	0.187
71.501	116.066	80.005	19.994	103.348	20.277	2.482	0.204
72.000	116.196	80.005	19.994	103.352	20.278	2.430	0.248
72.500	116.306	80.006	19.993	103.357	20.279	2.396	0.253
73.000	116.404	80.004	19.993	103.361	20.275	2.669	0.224
73.500	116.532	80.004	19.994	103.362	20.278	2.424	0.217
74.000	116.641	80.003	19.994	103.361	20.279	2.348	0.232
74.500	116.744	80.004	19.995	103.362	20.276	2.603	0.224
75.001	116.880	80.003	19.994	103.363	20.278	2.416	0.225
75.501	117.059	80.003	19.995	103.363	20.275	2.675	0.277
76.000	117.140	80.003	19.993	103.363	20.275	2.624	0.287
76.500	117.309	80.004	19.995	103.362	20.275	2.696	0.255
77.001	117.456	80.004	19.996	103.363	20.275	2.626	0.283
77.501	117.540	80.005	19.994	103.361	20.275	2.696	0.273
78.001	117.707	80.003	19.994	103.362	20.277	2.537	0.241
78.500	117.836	80.004	19.994	103.367	20.272	2.916	0.274
79.000	117.967	80.005	19.994	103.370	20.276	2.556	0.279
79.501	118.080	80.005	19.994	103.372	20.274	2.731	0.252
80.001	118.213	80.004	19.994	103.376	20.275	2.661	0.245
80.501	118.360	80.005	19.994	103.378	20.274	2.751	0.263
81.000	118.511	80.005	19.994	103.379	20.275	2.655	0.288
81.500	118.663	80.004	19.994	103.378	20.276	2.593	0.300
82.001	118.796	80.004	19.995	103.376	20.276	2.550	0.294
82.501	118.922	80.004	19.994	103.375	20.274	2.702	0.272
83.001	119.040	80.005	19.994	103.374	20.276	2.579	0.251
83.501	119.184	80.005	19.993	103.375	20.278	2.441	0.253
84.001	119.364	80.004	19.995	103.374	20.273	2.819	0.293
84.501	119.454	80.006	19.995	103.373	20.275	2.643	0.297
85.001	119.648	80.005	19.995	103.373	20.276	2.577	0.277
85.501	119.786	80.006	19.995	103.372	20.275	2.657	0.308
86.000	119.935	80.006	19.994	103.371	20.276	2.616	0.310
86.500	120.026	80.006	19.994	103.371	20.275	2.686	0.264
87.001	120.223	80.005	19.995	103.369	20.273	2.780	0.264
87.501	120.386	80.006	19.995	103.370	20.269	3.101	0.324
88.000	120.522	80.006	19.995	103.370	20.271	2.963	0.330
88.501	120.680	80.006	19.995	103.371	20.272	2.885	0.297
89.001	120.810	80.007	19.995	103.371	20.272	2.912	0.291
89.500	120.960	80.006	19.995	103.374	20.271	2.932	0.283
90.000	121.116	80.006	19.995	103.375	20.272	2.912	0.293
90.500	121.266	80.006	19.994	103.375	20.273	2.782	0.306
91.000	121.447	80.006	19.995	103.374	20.272	2.893	0.318
91.500	121.578	80.006	19.994	103.374	20.267	3.243	0.321
92.000	121.715	80.006	19.994	103.373	20.267	3.278	0.290
92.500	121.909	80.004	19.994	103.372	20.268	3.171	0.300
93.000	122.070	80.004	19.997	103.374	20.268	3.179	0.343
93.500	122.265	80.005	19.996	103.376	20.271	2.941	0.355
94.000	122.393	80.004	19.995	103.380	20.269	3.101	0.340
94.500	122.596	80.004	19.994	103.384	20.270	3.039	0.327
95.001	122.740	80.005	19.995	103.388	20.271	2.994	0.339
95.501	122.912	80.006	19.996	103.392	20.270	3.052	0.332
96.000	123.082	80.004	19.994	103.396	20.268	3.147	0.329
96.501	123.276	80.005	19.994	103.400	20.268	3.155	0.353
97.001	123.408	80.004	19.994	103.400	20.269	3.085	0.345
97.501	123.571	80.005	19.994	103.395	20.271	2.990	0.311
98.000	123.759	80.004	19.995	103.391	20.266	3.297	0.323
98.500	123.927	80.005	19.995	103.386	20.271	2.992	0.353
99.000	124.091	80.003	19.995	103.379	20.267	3.264	0.344
99.500	124.237	80.004	19.993	103.374	20.268	3.190	0.321
100.000	124.406	80.004	19.994	103.374	20.270	3.021	0.312
100.500	124.580	80.004	19.995	103.373	20.268	3.151	0.329
101.000	124.761	80.004	19.995	103.374	20.271	2.959	0.349
101.500	124.953	80.004	19.994	103.381	20.267	3.245	0.365
102.000	125.132	80.004	19.995	103.388	20.268	3.192	0.372
102.501	125.311	80.004	19.994	103.389	20.269	3.122	0.364
103.001	125.479	80.004	19.995	103.393	20.269	3.080	0.352
103.500	125.722	80.004	19.994	103.392	20.268	3.175	0.379
104.000	125.858	80.003	19.995	103.386	20.270	3.021	0.395
104.500	126.051	80.005	19.994	103.381	20.269	3.128	0.354
105.000	126.219	80.005	19.994	103.381	20.268	3.196	0.345
105.501	126.376	80.004	19.993	103.379	20.268	3.149	0.343
106.001	126.558	80.004	19.995	103.382	20.268	3.159	0.332
106.501	126.762	80.003	19.993	103.388	20.269	3.087	0.363
107.001	126.944	80.004	19.994	103.391	20.271	2.966	0.386
107.500	127.125	80.004	19.994	103.397	20.268	3.196	0.374
108.000	127.309	80.004	19.994	103.396	20.268	3.203	0.364
108.500	127.487	80.005	19.993	103.394	20.268	3.211	0.363
109.001	127.676	80.004	19.996	103.392	20.267	3.281	0.365
109.501	127.847	80.005	19.994	103.392	20.271	2.964	0.364
110.000	128.069	80.005	19.995	103.389	20.268	3.213	0.377
110.500	128.237	80.005	19.996	103.392	20.268	3.211	0.391
111.000	128.441	80.005	19.994	103.395	20.269	3.091	0.381
111.501	128.674	80.005	19.994	103.393	20.269	3.081	0.404
112.001	128.841	80.006	19.993	103.393	20.269	3.135	0.419
112.500	128.977	80.005	19.994	103.391	20.269	3.139	0.351
113.001	129.215	80.008	19.994	103.388	20.273	2.843	0.339
113.501	129.420	80.005	19.994	103.384	20.266	3.330	0.409
114.000	129.644	80.006	19.995	103.382	20.270	2.999	0.436
114.500	129.847	80.006	19.994	103.379	20.270	3.040	0.428
115.000	130.049	80.007	19.994	103.380	20.267	3.277	0.416
115.500	130.229	80.006	19.995	103.383	20.268	3.151	0.394
116.000	130.461	80.007	19.994	103.388	20.270	3.048	0.397
116.501	130.623	80.005	19.995	103.392	20.270	2.999	0.403
117.001	130.825	80.006	19.993	103.397	20.265	3.412	0.379
117.501	131.065	80.007	19.995	103.401	20.267	3.283	0.403
118.001	131.248	80.006	19.995	103.403	20.265	3.396	0.432
118.500	131.430	80.006	19.994	103.404	20.264	3.453	0.394
119.000	131.635	80.006	19.994	103.406	20.263	3.519	0.376
119.500	131.866	80.006	19.995	103.407	20.264	3.468	0.412
120.001	132.080	80.006	19.995	103.407	20.263	3.521	0.441
120.501	132.308	80.006	19.994	103.408	20.263	3.521	0.444
121.000	132.505	80.006	19.994	103.406	20.262	3.651	0.433
121.501	132.712	80.005	19.995	103.403	20.262	3.614	0.414
122.001	132.898	80.005	19.994	103.403	20.264	3.513	0.399
122.500	133.079	80.006	19.995	103.402	20.261	3.676	0.380
123.000	133.304	80.006	19.995	103.402	20.262	3.620	0.386
123.501	133.567	80.006	19.995	103.404	20.264	3.478	0.447
124.001	133.745	80.004	19.994	103.409	20.264	3.489	0.465
124.500	133.968	80.005	19.995	103.410	20.262	3.594	0.421
125.000	134.132	80.005	19.994	103.412	20.266	3.302	0.394
125.500	134.402	80.005	19.995	103.412	20.263	3.544	0.410
126.000	134.606	80.005	19.994	103.411	20.264	3.462	0.454
126.501	134.804	80.005	19.995	103.412	20.263	3.544	0.438
127.001	135.032	80.005	19.995	103.411	20.265	3.410	0.414
127.500	135.272	80.006	19.994	103.411	20.264	3.478	0.447
128.000	135.456	80.005	19.993	103.409	20.264	3.513	0.446
128.500	135.688	80.005	19.994	103.407	20.261	3.684	0.420
129.000	135.890	80.006	19.995	103.405	20.264	3.445	0.425
129.500	136.123	80.004	19.994	103.405	20.264	3.482	0.434
130.000	136.345	80.005	19.994	103.405	20.259	3.865	0.445
130.501	136.571	80.005	19.994	103.407	20.265	3.377	0.452
131.000	136.786	80.006	19.994	103.410	20.265	3.408	0.445
131.500	136.953	80.005	19.995	103.410	20.264	3.489	0.411
132.000	137.163	80.005	19.995	103.406	20.265	3.417	0.379
132.500	137.384	80.004	19.995	103.405	20.264	3.495	0.404
133.000	137.601	80.004	19.993	103.405	20.263	3.554	0.435
133.500	137.825	80.006	19.994	103.405	20.265	3.396	0.439
134.000	138.063	80.006	19.994	103.408	20.264	3.476	0.451
134.500	138.282	80.006	19.994	103.414	20.263	3.528	0.459
135.000	138.519	80.005	19.994	103.416	20.262	3.663	0.457
135.500	138.739	80.006	19.994	103.414	20.263	3.521	0.457
136.000	138.930	80.005	19.993	103.415	20.267	3.287	0.434
136.500	139.138	80.005	19.993	103.412	20.262	3.606	0.405
137.000	139.391	80.006	19.993	103.409	20.266	3.357	0.430
137.500	139.660	80.007	19.995	103.409	20.266	3.340	0.492
138.000	139.883	80.005	19.994	103.410	20.262	3.604	0.507
138.501	140.142	80.005	19.995	103.409	20.259	3.863	0.487
139.000	140.375	80.005	19.994	103.406	20.260	3.809	0.486
139.500	140.580	80.006	19.994	103.405	20.261	3.680	0.465
140.000	140.793	80.005	19.994	103.406	20.261	3.717	0.428
140.500	141.036	80.007	19.994	103.404	20.259	3.854	0.437
141.000	141.250	80.006	19.993	103.405	20.264	3.455	0.456
141.500	141.466	80.007	19.994	103.409	20.262	3.607	0.443
142.000	141.722	80.007	19.995	103.411	20.263	3.546	0.451
142.500	141.974	80.006	19.994	103.411	20.263	3.583	0.491
143.000	142.195	80.006	19.995	103.412	20.265	3.441	0.491
143.500	142.421	80.007	19.996	103.412	20.265	3.437	0.459
144.000	142.620	80.007	19.994	103.410	20.261	3.721	0.436
144.500	142.899	80.006	19.994	103.410	20.262	3.599	0.452
145.000	143.093	80.007	19.993	103.409	20.263	3.542	0.476
145.500	143.360	80.006	19.995	103.408	20.262	3.624	0.467
146.000	143.606	80.008	19.995	103.407	20.267	3.288	0.486
146.500	143.862	80.006	19.995	103.408	20.265	3.410	0.507
147.000	144.135	80.008	19.994	103.408	20.263	3.570	0.516
147.500	144.318	80.005	19.994	103.408	20.263	3.566	0.492
148.001	144.565	80.007	19.993	103.409	20.262	3.609	0.443
148.501	144.798	80.006	19.995	103.405	20.265	3.433	0.455
149.001	145.041	80.006	19.995	103.406	20.266	3.328	0.478
149.500	145.294	80.007	19.994	103.404	20.263	3.552	0.486
150.000	145.511	80.006	19.995	103.402	20.268	3.212	0.483
150.500	145.758	80.006	19.994	103.402	20.263	3.547	0.468
151.000	146.006	80.004	19.995	103.404	20.262	3.621	0.480
151.501	146.226	80.004	19.995	103.397	20.263	3.564	0.481
152.000	146.476	80.004	19.996	103.395	20.261	3.691	0.469
152.500	146.650	80.004	19.996	103.396	20.264	3.445	0.447
153.000	146.901	80.004	19.996	103.396	20.262	3.650	0.424
153.500	147.203	80.003	19.997	103.398	20.262	3.611	0.489
154.000	147.400	80.003	19.996	103.404	20.266	3.358	0.526
154.500	147.664	80.004	19.996	103.407	20.264	3.486	0.480
155.001	147.920	80.004	19.995	103.407	20.268	3.184	0.491
155.501	148.149	80.005	19.995	103.405	20.263	3.536	0.503
156.000	148.402	80.003	19.995	103.398	20.266	3.340	0.484
156.500	148.655	80.005	19.994	103.391	20.263	3.589	0.494
157.000	148.896	80.004	19.995	103.387	20.260	3.743	0.500
157.500	149.136	80.005	19.995	103.386	20.262	3.657	0.488
158.000	149.406	80.003	19.995	103.387	20.259	3.823	0.496
158.501	149.647	80.005	19.995	103.392	20.257	3.979	0.510
159.001	149.882	80.006	19.995	103.396	20.262	3.621	0.493
159.500	150.115	80.003	19.996	103.400	20.262	3.654	0.472
160.000	150.384	80.006	19.995	103.398	20.262	3.601	0.485
160.500	150.644	80.003	19.994	103.395	20.259	3.843	0.515
161.000	150.853	80.005	19.996	103.390	20.261	3.724	0.499
161.500	151.098	80.003	19.995	103.387	20.258	3.936	0.462
162.000	151.374	80.006	19.994	103.385	20.262	3.662	0.487
162.500	151.590	80.006	19.995	103.384	20.261	3.707	0.506
163.000	151.860	80.005	19.994	103.383	20.261	3.675	0.489
163.500	152.106	80.005	19.994	103.387	20.259	3.854	0.501
164.000	152.341	80.005	19.994	103.388	20.260	3.784	0.499
164.500	152.583	80.005	19.994	103.389	20.259	3.858	0.479
165.000	152.838	80.005	19.994	103.394	20.260	3.794	0.487
165.500	153.095	80.004	19.995	103.399	20.261	3.707	0.505
166.000	153.325	80.007	19.994	103.403	20.256	4.049	0.500
166.500	153.561	80.005	19.993	103.406	20.258	3.946	0.477
167.000	153.761	80.004	19.995	103.403	20.256	4.071	0.451
167.500	154.056	80.005	19.994	103.403	20.257	4.026	0.465
168.000	154.305	80.005	19.994	103.400	20.255	4.123	0.519
168.501	154.523	80.005	19.993	103.396	20.259	3.831	0.505
169.001	154.800	80.006	19.994	103.391	20.260	3.761	0.481
169.500	155.026	80.005	19.995	103.388	20.259	3.821	0.499
170.000	155.246	80.004	19.994	103.382	20.257	3.981	0.475
170.500	155.518	80.005	19.994	103.382	20.257	3.965	0.469
171.000	155.779	80.006	19.995	103.381	20.259	3.854	0.513
171.500	156.023	80.004	19.993	103.379	20.256	4.111	0.519
172.000	156.233	80.005	19.994	103.380	20.256	4.068	0.479
