Sample ID:	C:\MCC\MCC Cal\Test\Polyester_Carpet_MedPile_MCC_30K_min_211029_R3.txt
Sample Weight (mg):	4.46
Heating Rate (C/s):	0.5
Combustor Temp (C):	900
N2 Flow Rate (cc/min):	80
O2 Flow Rate (cc/min):	20
Calibration File:	C:\MCC\MCC Cal\Coeff1 JN10440_30_210304.txt.txt
T Correction Coefficients:	0	1.024463	0
Time Shift (s):	14
*
Time (s)	Temperature (C)	N2 flow rate (cc/min)	O2 flow rate (cc/min)	Flow Rate (cc/min)	Oxygen (%)	HRR (W/g)	Heating rate (C/s)
0.000	107.834	79.995	19.996	102.895	20.070	0.081	0.006
0.500	107.828	79.994	19.995	102.895	20.069	0.153	-0.008
1.000	107.828	79.994	19.998	102.896	20.066	0.365	-0.013
1.500	107.820	79.996	19.998	102.896	20.069	0.196	-0.007
2.000	107.832	79.995	19.999	102.900	20.069	0.159	-0.002
2.500	107.857	79.993	19.997	102.899	20.067	0.284	0.020
3.000	107.824	79.993	19.997	102.900	20.065	0.454	0.014
3.500	107.827	79.993	19.996	102.901	20.068	0.228	-0.019
4.000	107.834	79.995	19.997	102.901	20.069	0.155	-0.010
4.500	107.860	79.994	19.997	102.899	20.067	0.327	0.021
5.000	107.855	79.991	19.997	102.904	20.067	0.276	0.027
5.500	107.805	79.995	19.997	102.908	20.065	0.476	-0.017
6.000	107.837	79.994	19.996	102.913	20.066	0.395	-0.036
6.500	107.797	79.993	19.998	102.915	20.067	0.345	-0.012
7.000	107.840	79.994	19.997	102.915	20.067	0.329	-0.002
7.500	107.820	79.993	19.997	102.915	20.067	0.321	0.013
8.000	107.819	79.993	19.997	102.916	20.065	0.454	0.001
8.500	107.821	79.994	19.996	102.917	20.066	0.402	-0.010
9.000	107.830	79.994	19.996	102.921	20.066	0.418	0.006
9.500	107.839	79.992	19.996	102.927	20.066	0.351	0.015
10.000	107.847	79.993	19.997	102.928	20.067	0.335	0.018
10.501	107.823	79.994	19.997	102.928	20.065	0.430	0.000
11.001	107.846	79.996	19.997	102.928	20.063	0.567	-0.009
11.500	107.833	79.994	19.996	102.929	20.069	0.182	0.004
12.000	107.804	79.993	19.996	102.930	20.065	0.452	-0.016
12.500	107.798	79.993	19.996	102.932	20.066	0.416	-0.038
13.000	107.834	79.990	19.996	102.932	20.064	0.519	-0.003
13.500	107.818	79.994	19.996	102.933	20.064	0.562	0.025
14.000	107.849	79.994	19.996	102.933	20.066	0.358	0.018
14.500	107.837	79.993	19.996	102.933	20.064	0.519	0.017
15.000	107.836	79.997	19.995	102.937	20.061	0.729	0.003
15.500	107.856	79.996	19.995	102.941	20.062	0.689	0.003
16.000	107.801	79.995	19.997	102.946	20.061	0.747	-0.008
16.500	107.833	79.993	19.994	102.952	20.062	0.663	-0.028
17.000	107.854	79.995	19.995	102.960	20.061	0.762	0.015
17.500	107.871	79.994	19.996	102.964	20.057	1.024	0.045
18.000	107.862	79.996	19.995	102.975	20.055	1.168	0.023
18.500	107.886	79.995	19.995	102.984	20.055	1.144	0.011
19.000	107.885	79.996	19.995	102.994	20.054	1.222	0.019
19.500	107.889	79.995	19.995	103.002	20.054	1.218	0.013
20.000	107.906	79.996	19.996	103.009	20.057	1.045	0.012
20.500	107.910	79.995	19.997	103.011	20.052	1.370	0.021
21.000	107.928	79.994	19.995	103.016	20.047	1.717	0.021
21.500	107.947	79.998	19.994	103.023	20.048	1.667	0.029
22.000	107.972	79.994	19.994	103.034	20.048	1.675	0.041
22.500	108.032	79.993	19.996	103.048	20.045	1.891	0.065
23.000	108.040	79.995	19.995	103.063	20.049	1.629	0.077
23.500	108.047	80.000	19.995	103.074	20.046	1.805	0.041
24.000	108.109	79.997	19.995	103.084	20.044	1.946	0.042
24.500	108.153	79.993	19.995	103.088	20.042	2.110	0.088
25.000	108.156	79.991	19.995	103.089	20.042	2.106	0.076
25.500	108.211	79.992	19.994	103.089	20.042	2.144	0.052
26.000	108.248	80.006	19.995	103.090	20.039	2.296	0.075
26.500	108.256	79.994	19.994	103.088	20.038	2.415	0.069
27.000	108.286	79.995	19.996	103.087	20.038	2.391	0.041
27.500	108.342	79.995	19.994	103.087	20.038	2.435	0.061
28.000	108.420	79.998	19.994	103.090	20.036	2.524	0.110
28.500	108.414	79.995	19.995	103.093	20.035	2.641	0.103
29.000	108.519	79.991	19.995	103.100	20.036	2.524	0.086
29.500	108.544	79.994	19.994	103.108	20.035	2.603	0.114
30.000	108.602	79.996	19.995	103.113	20.036	2.544	0.106
30.500	108.644	79.997	19.996	103.114	20.034	2.681	0.091
31.000	108.734	79.997	19.994	103.111	20.034	2.695	0.116
31.500	108.753	79.994	19.993	103.109	20.032	2.819	0.121
32.000	108.835	79.986	19.996	103.108	20.035	2.609	0.105
32.500	108.896	79.994	19.996	103.111	20.029	3.053	0.122
33.000	108.988	79.991	19.996	103.116	20.034	2.657	0.148
33.501	109.012	79.990	19.996	103.122	20.031	2.877	0.135
34.001	109.098	80.010	19.992	103.126	20.031	2.938	0.113
34.500	109.188	79.994	19.995	103.130	20.033	2.730	0.143
35.000	109.256	79.992	19.995	103.130	20.033	2.761	0.167
35.500	109.300	79.993	19.995	103.128	20.030	2.967	0.135
36.000	109.396	79.991	19.995	103.123	20.032	2.835	0.126
36.500	109.449	79.995	19.994	103.122	20.029	3.064	0.144
37.000	109.539	79.993	19.996	103.119	20.029	3.066	0.146
37.500	109.618	79.994	19.995	103.119	20.032	2.850	0.155
38.000	109.712	79.993	19.995	103.119	20.031	2.918	0.171
38.500	109.788	79.995	19.995	103.122	20.031	2.888	0.172
39.000	109.906	79.997	19.996	103.122	20.033	2.793	0.182
39.500	109.971	79.990	19.994	103.121	20.034	2.714	0.188
40.000	110.062	79.990	19.996	103.120	20.031	2.937	0.170
40.501	110.164	79.994	19.995	103.116	20.027	3.185	0.175
41.001	110.230	79.992	19.995	103.112	20.031	2.934	0.180
41.500	110.357	79.990	19.997	103.112	20.030	2.953	0.180
42.000	110.433	79.994	19.997	103.109	20.031	2.876	0.198
42.500	110.481	79.994	19.995	103.107	20.030	2.995	0.163
43.000	110.607	79.994	19.995	103.109	20.029	3.026	0.149
43.501	110.712	79.992	19.995	103.111	20.032	2.816	0.203
44.001	110.803	79.995	19.995	103.112	20.028	3.107	0.214
44.501	110.912	79.987	19.995	103.115	20.031	2.894	0.198
45.000	110.987	79.999	19.994	103.118	20.030	2.977	0.192
45.500	111.078	79.995	19.996	103.125	20.030	2.980	0.175
46.000	111.200	79.996	19.994	103.125	20.031	2.941	0.189
46.500	111.304	79.986	19.994	103.127	20.028	3.140	0.219
47.000	111.384	79.997	19.995	103.130	20.031	2.938	0.205
47.500	111.557	79.988	19.995	103.131	20.030	2.988	0.218
48.000	111.649	79.990	19.992	103.128	20.028	3.093	0.259
48.500	111.779	79.999	19.995	103.133	20.028	3.148	0.244
49.000	111.889	80.004	19.995	103.132	20.024	3.415	0.231
49.500	111.988	79.989	19.995	103.135	20.027	3.210	0.224
50.000	112.111	80.004	19.994	103.135	20.029	3.059	0.216
50.500	112.221	79.990	19.995	103.137	20.027	3.208	0.228
51.000	112.319	79.983	19.997	103.133	20.026	3.305	0.221
51.500	112.448	79.987	19.996	103.130	20.026	3.245	0.217
52.000	112.588	79.978	19.996	103.124	20.028	3.123	0.248
52.500	112.699	79.975	19.998	103.127	20.023	3.461	0.260
53.000	112.823	79.990	19.995	103.125	20.025	3.312	0.243
53.500	112.936	79.998	19.997	103.131	20.026	3.249	0.236
54.000	113.056	79.983	19.996	103.136	20.022	3.526	0.235
54.500	113.192	79.980	19.995	103.140	20.025	3.326	0.245
55.000	113.313	79.986	19.997	103.143	20.023	3.512	0.256
55.500	113.485	79.986	19.996	103.146	20.022	3.587	0.275
56.000	113.638	79.998	19.993	103.148	20.022	3.564	0.309
56.500	113.741	79.981	19.997	103.157	20.020	3.698	0.290
57.000	113.897	79.987	19.995	103.161	20.019	3.746	0.257
57.500	114.067	79.998	19.996	103.161	20.023	3.469	0.293
58.000	114.151	79.994	19.996	103.167	20.023	3.500	0.290
58.500	114.285	79.993	19.996	103.167	20.021	3.643	0.236
59.000	114.485	79.992	19.995	103.163	20.020	3.714	0.276
59.500	114.640	79.989	19.997	103.165	20.020	3.722	0.344
60.001	114.762	79.981	19.997	103.163	20.019	3.772	0.316
60.501	114.950	79.996	19.995	103.162	20.021	3.608	0.294
61.000	115.069	79.995	19.996	103.164	20.021	3.625	0.309
61.500	115.210	79.995	19.996	103.164	20.019	3.754	0.283
62.001	115.337	79.980	19.998	103.164	20.021	3.649	0.264
62.501	115.507	79.993	19.996	103.161	20.020	3.677	0.282
63.000	115.677	79.992	19.994	103.162	20.019	3.787	0.318
63.500	115.844	79.993	19.995	103.163	20.022	3.548	0.338
64.000	115.962	80.005	19.995	103.167	20.023	3.500	0.311
64.500	116.130	79.990	19.996	103.170	20.021	3.635	0.286
65.001	116.245	79.990	19.997	103.174	20.022	3.580	0.284
65.501	116.462	79.999	19.995	103.177	20.019	3.769	0.307
66.000	116.579	80.004	19.996	103.174	20.017	3.926	0.333
66.500	116.757	79.986	19.996	103.172	20.020	3.686	0.315
67.000	116.901	79.982	19.997	103.168	20.022	3.554	0.309
67.501	117.096	80.006	19.994	103.168	20.019	3.740	0.331
68.001	117.269	79.991	19.996	103.167	20.018	3.859	0.353
68.500	117.407	79.996	19.996	103.167	20.020	3.690	0.340
69.000	117.591	79.981	19.998	103.165	20.020	3.682	0.317
69.500	117.749	79.990	19.996	103.164	20.022	3.579	0.332
70.000	117.958	79.997	19.996	103.165	20.019	3.748	0.355
70.500	118.077	79.974	19.999	103.164	20.019	3.756	0.347
71.000	118.261	79.987	19.996	103.159	20.018	3.811	0.315
71.500	118.451	79.996	19.996	103.159	20.017	3.906	0.338
72.000	118.621	79.991	19.996	103.161	20.020	3.705	0.367
72.500	118.804	79.993	19.996	103.161	20.019	3.802	0.357
73.000	118.978	79.993	19.994	103.160	20.016	3.970	0.355
73.500	119.162	79.992	19.996	103.165	20.016	3.969	0.358
74.000	119.349	79.976	19.997	103.166	20.021	3.611	0.365
74.500	119.562	80.000	19.995	103.165	20.019	3.763	0.386
75.000	119.737	79.994	19.995	103.168	20.021	3.652	0.394
75.500	119.906	79.981	19.996	103.170	20.019	3.771	0.366
76.000	120.113	79.990	19.994	103.167	20.021	3.656	0.360
76.500	120.274	79.984	19.996	103.169	20.020	3.722	0.372
77.001	120.466	79.989	19.994	103.169	20.023	3.463	0.361
77.501	120.613	79.983	19.995	103.167	20.022	3.569	0.346
78.000	120.864	80.002	19.994	103.165	20.021	3.641	0.368
78.500	121.051	79.988	19.995	103.169	20.018	3.856	0.418
79.000	121.210	79.993	19.995	103.168	20.020	3.696	0.392
79.500	121.434	79.993	19.995	103.171	20.019	3.744	0.365
80.000	121.623	79.986	19.995	103.171	20.021	3.595	0.398
80.500	121.794	79.991	19.995	103.172	20.024	3.425	0.386
81.001	122.003	79.992	19.996	103.171	20.021	3.641	0.370
81.501	122.203	79.984	19.998	103.169	20.023	3.522	0.395
82.000	122.349	79.965	19.999	103.163	20.019	3.755	0.378
82.500	122.584	79.998	19.996	103.156	20.019	3.777	0.363
83.000	122.757	79.980	19.996	103.156	20.021	3.658	0.394
83.500	123.004	80.010	19.994	103.155	20.016	3.989	0.414
84.000	123.183	79.995	19.995	103.162	20.022	3.550	0.424
84.500	123.385	79.991	19.995	103.168	20.021	3.659	0.404
85.000	123.571	79.996	19.996	103.180	20.022	3.575	0.384
85.500	123.765	79.990	19.997	103.180	20.021	3.651	0.384
86.000	123.973	79.993	19.996	103.181	20.018	3.872	0.391
86.500	124.170	79.994	19.997	103.177	20.022	3.589	0.403
87.000	124.352	79.987	19.996	103.180	20.021	3.653	0.392
87.500	124.541	79.986	19.995	103.173	20.018	3.872	0.375
88.000	124.770	79.992	19.996	103.174	20.020	3.671	0.395
88.500	125.004	79.992	19.997	103.174	20.021	3.625	0.440
89.000	125.209	79.993	19.997	103.173	20.019	3.783	0.451
89.500	125.431	79.993	19.997	103.171	20.022	3.534	0.433
90.000	125.623	79.994	19.996	103.175	20.018	3.870	0.421
90.500	125.827	79.991	19.996	103.175	20.020	3.726	0.406
91.000	126.057	79.995	19.997	103.174	20.018	3.839	0.415
91.501	126.252	79.994	19.995	103.176	20.024	3.380	0.429
92.001	126.448	79.995	19.995	103.176	20.020	3.698	0.408
92.500	126.678	79.998	19.993	103.173	20.021	3.635	0.409
93.000	126.880	79.992	19.996	103.176	20.020	3.671	0.429
93.500	127.114	80.001	19.995	103.176	20.022	3.562	0.434
94.000	127.312	79.994	19.997	103.176	20.021	3.641	0.434
94.500	127.527	79.983	19.998	103.175	20.020	3.675	0.422
95.000	127.730	79.982	19.997	103.172	20.020	3.710	0.416
95.500	127.975	79.997	19.996	103.168	20.022	3.554	0.433
96.000	128.161	79.988	19.996	103.174	20.024	3.417	0.440
96.500	128.363	79.988	19.998	103.174	20.021	3.623	0.410
97.000	128.601	79.992	19.997	103.171	20.021	3.629	0.414
97.501	128.810	79.976	19.997	103.172	20.023	3.514	0.443
98.001	129.061	80.005	19.995	103.171	20.026	3.281	0.454
98.501	129.269	80.002	19.996	103.165	20.023	3.471	0.460
99.001	129.470	79.991	19.996	103.163	20.021	3.643	0.434
99.500	129.712	80.003	19.996	103.166	20.024	3.449	0.426
100.000	129.926	79.994	19.996	103.167	20.022	3.572	0.450
100.500	130.165	79.998	19.994	103.164	20.019	3.779	0.455
101.000	130.395	80.008	19.994	103.166	20.023	3.498	0.461
101.500	130.587	79.987	19.997	103.168	20.022	3.587	0.445
102.001	130.818	80.001	19.996	103.166	20.022	3.566	0.422
102.501	131.048	79.997	19.995	103.165	20.024	3.403	0.442
103.000	131.275	79.976	19.998	103.170	20.019	3.766	0.459
103.501	131.507	80.006	19.994	103.164	20.022	3.588	0.458
104.001	131.695	79.981	19.996	103.165	20.021	3.643	0.440
104.501	131.937	79.999	19.994	103.168	20.023	3.503	0.425
105.001	132.171	79.991	19.997	103.169	20.020	3.685	0.453
105.501	132.428	80.004	19.993	103.166	20.021	3.619	0.483
106.000	132.627	79.991	19.995	103.172	20.023	3.488	0.473
106.500	132.821	79.984	19.994	103.170	20.027	3.221	0.424
107.000	133.097	79.985	19.995	103.170	20.025	3.316	0.432
107.500	133.308	79.988	19.994	103.168	20.026	3.241	0.479
108.000	133.542	79.996	19.995	103.171	20.024	3.386	0.466
108.500	133.793	79.990	19.995	103.168	20.024	3.443	0.465
109.000	133.991	79.991	19.995	103.167	20.025	3.326	0.467
109.500	134.233	79.992	19.997	103.167	20.022	3.593	0.445
110.000	134.484	79.994	19.998	103.167	20.022	3.566	0.466
110.500	134.704	79.993	19.997	103.166	20.025	3.309	0.481
111.000	134.942	79.990	19.998	103.167	20.024	3.431	0.464
111.500	135.200	79.996	19.996	103.168	20.024	3.445	0.477
112.000	135.427	80.014	19.995	103.168	20.021	3.602	0.491
112.500	135.657	79.990	19.997	103.170	20.023	3.461	0.471
113.001	135.879	79.984	19.997	103.171	20.024	3.425	0.455
113.501	136.106	80.001	19.996	103.168	20.023	3.522	0.451
114.000	136.319	79.984	19.996	103.166	20.027	3.221	0.444
114.500	136.542	79.985	19.996	103.164	20.023	3.522	0.438
115.000	136.785	79.995	19.995	103.162	20.024	3.411	0.451
115.500	137.052	79.996	19.996	103.162	20.023	3.491	0.488
116.001	137.304	79.986	19.993	103.164	20.022	3.544	0.515
116.501	137.556	80.005	19.994	103.166	20.026	3.261	0.512
117.001	137.744	79.982	19.997	103.171	20.024	3.414	0.472
117.501	137.995	79.994	19.995	103.170	20.021	3.627	0.440
118.000	138.202	79.987	19.996	103.170	20.024	3.429	0.448
118.500	138.453	79.990	19.996	103.169	20.026	3.249	0.458
119.000	138.695	79.989	19.994	103.169	20.027	3.211	0.475
119.500	138.975	79.986	19.997	103.167	20.025	3.366	0.508
120.000	139.232	79.991	19.996	103.168	20.025	3.330	0.530
120.500	139.446	79.989	19.998	103.167	20.024	3.403	0.504
121.001	139.686	79.986	19.997	103.163	20.022	3.538	0.462
121.501	139.934	80.004	19.994	103.161	20.024	3.408	0.471
122.001	140.156	79.990	19.995	103.160	20.025	3.313	0.479
122.501	140.380	79.979	19.997	103.161	20.027	3.218	0.458
123.000	140.658	79.995	19.996	103.161	20.026	3.297	0.474
123.500	140.904	79.992	19.996	103.165	20.026	3.281	0.513
124.000	141.113	79.994	19.996	103.167	20.027	3.182	0.490
124.500	141.366	80.005	19.994	103.165	20.027	3.182	0.459
125.000	141.601	79.989	19.997	103.167	20.027	3.216	0.475
125.500	141.833	79.992	19.996	103.167	20.024	3.396	0.478
126.000	142.057	79.994	19.996	103.166	20.025	3.332	0.462
126.501	142.323	79.995	19.997	103.167	20.025	3.368	0.473
127.001	142.553	79.978	19.997	103.167	20.028	3.149	0.493
127.500	142.811	79.997	19.994	103.160	20.026	3.267	0.492
128.000	143.060	79.999	19.995	103.161	20.023	3.465	0.497
128.500	143.307	80.004	19.995	103.160	20.028	3.097	0.501
129.000	143.602	79.999	19.994	103.163	20.027	3.210	0.519
129.500	143.784	79.994	19.996	103.166	20.027	3.188	0.509
130.000	144.080	80.002	19.994	103.170	20.026	3.273	0.478
130.500	144.324	79.991	19.996	103.172	20.024	3.380	0.510
131.000	144.575	80.001	19.996	103.171	20.026	3.244	0.518
131.500	144.776	79.982	19.995	103.168	20.029	3.022	0.474
132.000	145.042	79.990	19.997	103.165	20.027	3.218	0.460
132.500	145.326	79.994	19.996	103.160	20.026	3.271	0.508
133.000	145.549	80.002	19.994	103.155	20.028	3.113	0.528
133.500	145.804	79.989	19.996	103.158	20.025	3.339	0.493
134.000	146.046	80.000	19.994	103.155	20.025	3.359	0.488
134.500	146.258	79.991	19.994	103.151	20.027	3.222	0.476
135.000	146.541	79.974	19.995	103.156	20.023	3.493	0.474
135.500	146.788	79.988	19.996	103.160	20.022	3.523	0.512
136.000	147.026	80.004	19.992	103.156	20.026	3.279	0.508
136.500	147.258	79.992	19.995	103.158	20.022	3.556	0.477
137.000	147.524	79.997	19.995	103.160	20.025	3.352	0.484
137.500	147.726	79.990	19.996	103.159	20.022	3.550	0.483
138.000	148.012	79.993	19.997	103.155	20.027	3.190	0.478
138.500	148.232	79.984	19.997	103.153	20.025	3.335	0.497
139.000	148.516	79.994	19.993	103.151	20.026	3.303	0.505
139.500	148.765	79.973	19.998	103.155	20.025	3.343	0.518
140.000	149.018	79.995	19.995	103.147	20.026	3.300	0.518
140.500	149.271	79.991	19.996	103.149	20.027	3.230	0.504
141.000	149.528	80.001	19.996	103.152	20.025	3.347	0.508
141.500	149.718	79.992	19.995	103.155	20.025	3.311	0.478
142.000	149.988	79.991	19.994	103.153	20.026	3.273	0.454
142.500	150.232	79.995	19.995	103.158	20.027	3.214	0.487
143.000	150.502	79.987	19.994	103.157	20.027	3.164	0.514
143.500	150.730	80.001	19.997	103.155	20.028	3.128	0.506
144.000	150.984	79.990	19.995	103.152	20.028	3.111	0.489
144.501	151.222	79.980	19.996	103.148	20.027	3.214	0.487
145.001	151.484	79.982	19.996	103.148	20.024	3.439	0.497
145.500	151.723	79.989	19.997	103.145	20.025	3.342	0.500
146.000	151.943	79.995	19.996	103.148	20.027	3.228	0.480
146.500	152.186	79.985	19.997	103.148	20.028	3.145	0.461
147.000	152.484	79.983	19.997	103.148	20.024	3.440	0.502
147.500	152.685	79.984	19.995	103.153	20.025	3.367	0.520
148.000	152.924	79.990	19.996	103.159	20.027	3.226	0.470
148.500	153.199	80.003	19.996	103.154	20.026	3.234	0.477
149.000	153.410	79.970	19.998	103.155	20.029	3.060	0.500
149.500	153.633	79.994	19.996	103.149	20.029	3.058	0.460
150.000	153.887	79.984	19.998	103.146	20.028	3.127	0.455
150.500	154.137	79.976	19.996	103.138	20.028	3.131	0.490
151.000	154.396	79.996	19.995	103.136	20.025	3.323	0.507
151.500	154.664	79.995	19.994	103.134	20.029	3.034	0.518
152.000	154.897	79.990	19.995	103.148	20.024	3.380	0.514
152.500	155.143	80.004	19.994	103.150	20.025	3.319	0.490
153.000	155.396	79.988	19.996	103.158	20.027	3.208	0.489
153.500	155.631	79.980	19.995	103.164	20.025	3.341	0.493
154.000	155.895	79.993	19.996	103.168	20.027	3.220	0.494
154.500	156.154	79.993	19.996	103.165	20.026	3.250	0.511
155.000	156.403	79.991	19.997	103.163	20.027	3.220	0.516
155.500	156.633	79.991	19.994	103.162	20.027	3.169	0.494
156.000	156.863	79.984	19.994	103.163	20.024	3.406	0.470
156.500	157.157	80.005	19.994	103.160	20.027	3.208	0.492
157.000	157.411	80.000	19.997	103.157	20.027	3.173	0.536
157.500	157.630	79.994	19.997	103.154	20.026	3.268	0.510
158.000	157.906	79.999	19.994	103.147	20.027	3.185	0.484
158.500	158.151	79.992	19.996	103.142	20.027	3.196	0.508
159.000	158.380	79.992	19.996	103.138	20.028	3.090	0.497
159.500	158.636	79.985	19.997	103.133	20.025	3.308	0.480
160.000	158.855	79.988	19.996	103.130	20.028	3.118	0.480
160.500	159.137	79.997	19.994	103.130	20.026	3.260	0.488
161.000	159.375	79.994	19.995	103.136	20.024	3.383	0.510
161.500	159.620	80.005	19.994	103.143	20.025	3.365	0.502
162.000	159.853	80.003	19.995	103.153	20.027	3.201	0.481
162.500	160.139	80.000	19.996	103.154	20.026	3.280	0.498
163.000	160.347	79.995	19.995	103.155	20.029	3.066	0.507
163.500	160.616	80.014	19.994	103.150	20.026	3.278	0.486
164.000	160.870	79.996	19.997	103.147	20.025	3.349	0.500
164.500	161.112	80.001	19.994	103.137	20.027	3.197	0.509
165.000	161.351	79.990	19.995	103.140	20.026	3.264	0.489
165.501	161.608	79.989	19.997	103.141	20.028	3.105	0.489
166.001	161.867	79.986	19.995	103.142	20.028	3.159	0.506
166.500	162.144	79.986	19.997	103.140	20.026	3.242	0.526
167.000	162.357	79.988	19.997	103.141	20.026	3.290	0.513
167.500	162.601	79.986	19.995	103.138	20.029	3.052	0.473
168.000	162.807	79.995	19.995	103.142	20.027	3.229	0.454
168.500	163.108	80.004	19.995	103.141	20.031	2.908	0.478
169.000	163.353	79.991	19.996	103.142	20.028	3.118	0.526
169.500	163.566	79.987	19.997	103.143	20.027	3.215	0.502
170.000	163.800	79.958	19.999	103.142	20.027	3.224	0.453
170.500	164.092	79.993	19.995	103.131	20.030	2.965	0.486
171.000	164.324	79.993	19.995	103.130	20.027	3.224	0.524
171.500	164.613	79.994	19.996	103.127	20.028	3.149	0.522
172.000	164.873	79.990	19.995	103.128	20.027	3.193	0.535
172.500	165.114	79.975	19.998	103.129	20.028	3.096	0.525
