Sample ID:	C:\MCC\MCC Cal\Test\Cedar_Single_MCC_30K_min_211215_R3.txt
Sample Weight (mg):	4.8
Heating Rate (C/s):	0.5
Combustor Temp (C):	900
N2 Flow Rate (cc/min):	80
O2 Flow Rate (cc/min):	20
Calibration File:	C:\MCC\MCC Cal\Coeff1 JN10440_30_210304.txt.txt
T Correction Coefficients:	0	1.024463	0
Time Shift (s):	14
*
Time (s)	Temperature (C)	N2 flow rate (cc/min)	O2 flow rate (cc/min)	Flow Rate (cc/min)	Oxygen (%)	HRR (W/g)	Heating rate (C/s)
-0.001	109.428	80.003	19.996	102.972	20.366	-0.060	0.014
0.500	109.430	80.009	19.995	102.970	20.365	0.009	-0.020
1.000	109.451	80.007	19.998	102.970	20.364	0.073	-0.000
1.500	109.451	80.005	19.999	102.971	20.366	-0.053	0.022
2.000	109.464	80.005	19.997	102.971	20.366	-0.068	0.017
2.501	109.444	80.002	19.997	102.975	20.365	0.004	0.002
3.001	109.454	80.004	19.997	102.976	20.365	0.026	-0.008
3.500	109.413	80.005	19.996	102.976	20.367	-0.162	-0.020
4.000	109.438	80.004	19.996	102.975	20.364	0.095	-0.024
4.500	109.490	80.004	19.997	102.975	20.365	0.013	0.030
5.000	109.428	80.002	20.000	102.975	20.365	0.026	0.034
5.500	109.470	80.004	19.996	102.973	20.366	-0.080	-0.015
6.000	109.396	80.003	19.997	102.972	20.363	0.161	-0.026
6.500	109.449	80.004	19.998	102.972	20.362	0.184	-0.027
7.000	109.458	80.002	19.998	102.972	20.363	0.104	0.020
7.500	109.437	80.001	19.998	102.973	20.364	0.068	0.025
8.000	109.458	80.002	20.000	102.978	20.366	-0.053	-0.006
8.500	109.440	80.001	19.996	102.980	20.362	0.208	0.001
9.000	109.448	80.002	19.999	102.980	20.365	-0.022	-0.003
9.500	109.447	80.001	19.997	102.985	20.364	0.089	-0.001
10.000	109.437	80.002	19.997	102.993	20.363	0.104	-0.002
10.500	109.401	80.002	19.996	102.998	20.363	0.163	-0.028
11.000	109.441	80.003	19.997	103.005	20.362	0.164	-0.021
11.500	109.408	80.002	19.996	103.015	20.360	0.325	0.005
12.000	109.425	80.004	19.997	103.018	20.357	0.563	-0.004
12.500	109.450	80.001	19.997	103.022	20.357	0.550	0.013
13.000	109.479	80.002	19.996	103.025	20.355	0.636	0.047
13.500	109.432	80.003	19.994	103.033	20.357	0.548	0.018
14.000	109.486	80.002	19.997	103.041	20.355	0.660	-0.005
14.500	109.461	80.003	19.996	103.055	20.352	0.875	0.018
15.000	109.492	80.002	19.996	103.070	20.354	0.725	0.018
15.500	109.509	80.003	19.995	103.082	20.352	0.886	0.027
16.000	109.497	80.003	19.995	103.090	20.350	1.010	0.026
16.500	109.527	80.003	19.995	103.096	20.350	0.972	0.012
17.000	109.540	80.004	19.996	103.099	20.349	1.049	0.031
17.500	109.543	80.002	19.996	103.097	20.348	1.151	0.030
18.000	109.604	80.003	19.997	103.096	20.345	1.332	0.040
18.500	109.608	80.002	19.996	103.096	20.345	1.317	0.065
19.000	109.635	80.002	19.994	103.096	20.345	1.316	0.048
19.500	109.680	80.002	19.995	103.099	20.340	1.668	0.051
20.001	109.693	80.003	19.995	103.108	20.342	1.555	0.065
20.500	109.693	80.001	19.995	103.118	20.336	1.950	0.036
20.999	109.769	80.001	19.994	103.129	20.335	2.025	0.045
21.499	109.817	80.001	19.996	103.140	20.336	1.947	0.100
22.000	109.833	79.999	19.997	103.151	20.336	1.963	0.093
22.500	109.859	80.004	19.995	103.154	20.333	2.113	0.053
22.999	109.915	80.004	19.995	103.159	20.337	1.864	0.062
23.499	109.963	80.003	19.995	103.164	20.335	1.994	0.093
23.999	109.979	80.003	19.995	103.168	20.335	2.040	0.084
24.499	110.061	80.003	19.995	103.169	20.334	2.099	0.081
24.999	110.109	80.002	19.995	103.175	20.335	2.018	0.114
25.500	110.134	80.004	19.994	103.176	20.331	2.276	0.102
26.000	110.203	80.004	19.994	103.175	20.332	2.187	0.084
26.499	110.243	80.003	19.996	103.175	20.333	2.121	0.101
26.999	110.312	80.003	19.993	103.175	20.331	2.302	0.109
27.499	110.341	80.001	19.996	103.175	20.330	2.315	0.104
27.999	110.410	80.003	19.995	103.175	20.329	2.431	0.098
28.499	110.451	80.001	19.998	103.177	20.328	2.453	0.104
29.000	110.529	80.005	19.994	103.179	20.326	2.616	0.115
29.500	110.642	80.002	19.996	103.184	20.328	2.487	0.155
29.999	110.671	80.002	19.993	103.187	20.330	2.355	0.166
30.499	110.759	80.003	19.994	103.195	20.325	2.648	0.129
30.999	110.807	80.004	19.994	103.201	20.327	2.573	0.127
31.499	110.864	80.002	19.996	103.206	20.327	2.574	0.120
31.999	110.939	80.001	19.996	103.209	20.325	2.664	0.119
32.499	111.061	80.003	19.994	103.214	20.324	2.722	0.165
32.999	111.107	80.002	19.996	103.214	20.326	2.616	0.183
33.499	111.161	80.002	19.995	103.215	20.326	2.580	0.134
34.000	111.278	80.004	19.994	103.216	20.323	2.834	0.135
34.501	111.337	80.004	19.995	103.218	20.324	2.772	0.173
35.000	111.405	80.003	19.994	103.219	20.321	2.947	0.152
35.499	111.514	80.001	19.996	103.226	20.322	2.863	0.153
35.999	111.611	80.004	19.993	103.231	20.322	2.892	0.192
36.499	111.689	80.003	19.993	103.238	20.324	2.772	0.190
36.999	111.828	80.001	19.996	103.243	20.319	3.066	0.196
37.499	111.874	80.004	19.995	103.245	20.319	3.079	0.201
37.999	112.018	80.003	19.993	103.241	20.319	3.057	0.187
38.499	112.110	79.999	19.995	103.239	20.318	3.156	0.213
38.999	112.249	80.002	19.995	103.236	20.317	3.229	0.234
39.500	112.318	80.003	19.995	103.236	20.321	2.966	0.220
40.000	112.438	80.003	19.995	103.239	20.319	3.097	0.198
40.499	112.544	80.002	19.997	103.244	20.316	3.273	0.207
40.999	112.691	80.002	19.993	103.247	20.315	3.373	0.240
41.499	112.804	80.001	19.995	103.251	20.319	3.113	0.256
42.000	112.905	80.004	19.995	103.252	20.316	3.291	0.237
42.500	113.033	80.002	19.995	103.248	20.318	3.181	0.222
43.000	113.133	80.003	19.994	103.246	20.319	3.112	0.229
43.500	113.277	80.005	19.996	103.243	20.318	3.179	0.236
43.999	113.394	80.003	19.996	103.243	20.314	3.391	0.253
44.500	113.476	80.004	19.995	103.243	20.319	3.067	0.230
45.000	113.639	80.004	19.994	103.245	20.318	3.146	0.222
45.499	113.748	80.006	19.996	103.246	20.318	3.183	0.258
45.999	113.898	80.004	19.995	103.246	20.317	3.216	0.265
46.500	114.063	80.004	19.996	103.242	20.314	3.408	0.287
47.001	114.184	80.004	19.995	103.242	20.313	3.484	0.301
47.500	114.270	80.004	19.995	103.242	20.316	3.316	0.247
48.000	114.406	80.005	19.995	103.242	20.314	3.399	0.215
48.500	114.573	80.005	19.994	103.246	20.314	3.402	0.263
49.000	114.696	80.004	19.994	103.249	20.315	3.324	0.296
49.500	114.844	80.005	19.994	103.248	20.313	3.470	0.280
50.000	114.939	80.005	19.994	103.249	20.312	3.537	0.257
50.500	115.153	80.003	19.995	103.244	20.316	3.257	0.276
51.001	115.246	80.005	19.995	103.240	20.315	3.329	0.308
51.501	115.438	80.005	19.995	103.238	20.316	3.279	0.296
52.000	115.594	80.005	19.995	103.238	20.314	3.427	0.316
52.500	115.744	80.007	19.994	103.238	20.316	3.305	0.327
52.999	115.874	80.004	19.995	103.243	20.314	3.385	0.293
53.499	116.015	80.006	19.994	103.242	20.315	3.340	0.276
53.999	116.155	80.004	19.995	103.241	20.316	3.278	0.276
54.500	116.332	80.005	19.995	103.236	20.315	3.364	0.299
55.000	116.482	80.003	19.993	103.231	20.317	3.192	0.322
55.499	116.635	79.999	20.002	103.226	20.316	3.275	0.315
55.999	116.832	80.004	19.996	103.226	20.317	3.241	0.327
56.499	116.970	80.006	19.994	103.229	20.316	3.283	0.342
56.999	117.134	80.003	19.996	103.234	20.317	3.212	0.318
57.499	117.292	80.005	19.997	103.234	20.317	3.229	0.312
57.999	117.472	80.004	19.993	103.233	20.317	3.245	0.330
58.500	117.580	80.002	19.995	103.235	20.315	3.358	0.313
59.000	117.797	80.004	19.995	103.235	20.315	3.331	0.306
59.499	117.950	80.003	19.994	103.231	20.315	3.348	0.348
59.999	118.115	80.004	19.994	103.234	20.317	3.236	0.344
60.499	118.245	80.003	19.994	103.235	20.317	3.212	0.306
60.999	118.421	80.001	20.001	103.231	20.319	3.090	0.300
61.499	118.568	80.004	19.995	103.223	20.319	3.055	0.315
61.999	118.742	80.003	19.994	103.221	20.315	3.349	0.322
62.500	118.978	80.004	19.994	103.216	20.318	3.183	0.366
63.000	119.096	80.003	19.996	103.217	20.318	3.148	0.382
63.499	119.280	80.003	19.996	103.221	20.318	3.161	0.328
63.999	119.443	80.004	19.996	103.222	20.315	3.364	0.324
64.499	119.618	80.003	19.997	103.226	20.316	3.256	0.343
64.999	119.838	80.003	19.999	103.234	20.315	3.339	0.367
65.499	119.991	80.006	19.996	103.238	20.318	3.158	0.384
65.999	120.111	80.008	19.994	103.241	20.317	3.209	0.323
66.500	120.327	80.006	19.997	103.245	20.319	3.083	0.304
67.000	120.557	80.003	19.995	103.240	20.319	3.064	0.391
67.499	120.741	80.006	19.995	103.233	20.319	3.112	0.430
67.999	120.897	80.003	19.995	103.233	20.316	3.271	0.378
68.499	121.118	80.004	19.995	103.234	20.317	3.202	0.359
68.999	121.275	80.004	19.998	103.232	20.317	3.209	0.378
69.499	121.476	80.003	19.999	103.239	20.316	3.309	0.368
69.999	121.674	80.004	19.996	103.246	20.316	3.306	0.378
70.499	121.823	80.004	19.997	103.246	20.317	3.218	0.373
70.999	122.016	80.005	19.996	103.242	20.319	3.079	0.345
71.499	122.251	80.006	19.996	103.240	20.317	3.213	0.385
71.999	122.420	80.007	19.995	103.233	20.315	3.373	0.416
72.499	122.572	80.004	19.996	103.230	20.314	3.403	0.362
72.999	122.820	80.006	19.995	103.228	20.315	3.377	0.361
73.499	123.018	80.005	19.994	103.229	20.315	3.368	0.423
73.999	123.198	80.006	19.995	103.236	20.312	3.562	0.412
74.500	123.403	80.007	19.995	103.243	20.316	3.310	0.382
75.000	123.604	80.006	19.996	103.246	20.315	3.379	0.396
75.499	123.805	80.005	19.996	103.249	20.314	3.414	0.404
75.999	123.948	80.004	19.997	103.251	20.315	3.348	0.373
76.499	124.125	80.004	19.995	103.250	20.315	3.355	0.331
76.999	124.337	80.005	19.996	103.250	20.312	3.528	0.355
77.499	124.531	80.007	19.995	103.250	20.314	3.435	0.398
77.999	124.742	80.007	19.995	103.249	20.315	3.378	0.406
78.499	124.963	80.006	19.992	103.248	20.311	3.587	0.418
78.999	125.124	80.001	20.001	103.250	20.311	3.613	0.407
79.499	125.350	80.003	20.001	103.249	20.312	3.553	0.385
79.999	125.589	80.011	19.996	103.248	20.316	3.258	0.426
80.499	125.764	80.009	19.994	103.248	20.313	3.499	0.440
80.999	125.964	80.000	19.996	103.251	20.316	3.293	0.394
81.499	126.150	80.003	19.998	103.250	20.314	3.404	0.380
81.999	126.362	79.999	19.996	103.251	20.314	3.397	0.392
82.500	126.565	80.003	19.992	103.250	20.314	3.401	0.407
83.000	126.794	80.005	19.995	103.248	20.311	3.618	0.423
83.500	126.957	80.002	19.996	103.247	20.313	3.518	0.412
84.000	127.182	80.004	19.995	103.247	20.314	3.428	0.390
84.499	127.368	80.004	19.995	103.247	20.313	3.500	0.400
84.999	127.604	80.003	19.995	103.250	20.310	3.666	0.416
85.499	127.773	80.001	19.996	103.252	20.310	3.670	0.413
85.999	127.991	80.003	19.996	103.253	20.312	3.556	0.397
86.499	128.175	80.001	19.996	103.254	20.311	3.609	0.395
87.000	128.423	80.002	19.996	103.251	20.313	3.458	0.417
87.501	128.617	80.000	20.000	103.244	20.313	3.502	0.437
88.001	128.789	80.004	19.996	103.238	20.313	3.505	0.404
88.500	129.073	80.002	19.994	103.235	20.313	3.474	0.411
89.000	129.282	80.003	19.997	103.234	20.315	3.348	0.474
89.500	129.427	80.001	19.997	103.235	20.315	3.370	0.423
90.000	129.684	80.001	19.996	103.241	20.313	3.476	0.378
90.500	129.932	80.003	19.994	103.247	20.312	3.565	0.453
90.999	130.097	80.003	19.995	103.248	20.312	3.585	0.459
91.499	130.305	80.002	19.997	103.246	20.314	3.415	0.394
91.999	130.543	79.998	20.002	103.248	20.315	3.384	0.410
92.500	130.714	80.002	19.996	103.246	20.312	3.565	0.428
93.000	130.962	80.002	19.996	103.245	20.317	3.238	0.414
93.501	131.174	80.002	19.995	103.248	20.314	3.408	0.439
94.001	131.407	80.006	19.996	103.251	20.315	3.344	0.453
94.500	131.573	80.001	19.996	103.252	20.315	3.331	0.422
95.000	131.814	80.000	19.997	103.254	20.315	3.341	0.403
95.500	132.102	80.001	19.996	103.253	20.316	3.280	0.467
96.000	132.269	79.999	19.997	103.254	20.313	3.512	0.492
96.500	132.491	80.002	19.994	103.253	20.315	3.370	0.423
97.001	132.678	80.001	19.997	103.253	20.318	3.117	0.399
97.500	132.915	80.004	19.997	103.253	20.317	3.225	0.416
97.999	133.131	80.002	19.999	103.254	20.316	3.278	0.439
98.499	133.378	80.002	19.997	103.253	20.316	3.265	0.458
98.999	133.601	80.004	19.996	103.253	20.314	3.399	0.466
99.499	133.799	80.000	20.001	103.253	20.319	3.057	0.446
99.999	134.019	80.002	19.998	103.251	20.313	3.456	0.420
100.499	134.240	80.003	19.994	103.250	20.314	3.439	0.429
100.999	134.512	80.003	19.996	103.251	20.312	3.543	0.467
101.499	134.745	80.006	19.992	103.250	20.313	3.463	0.499
101.999	134.953	80.001	19.998	103.248	20.314	3.401	0.473
102.499	135.183	80.003	19.994	103.249	20.314	3.441	0.440
102.999	135.377	80.003	19.998	103.250	20.317	3.223	0.431
103.499	135.637	80.003	19.997	103.249	20.314	3.426	0.439
103.999	135.856	80.003	19.998	103.249	20.318	3.143	0.467
104.499	136.039	80.004	19.995	103.250	20.320	3.021	0.440
104.999	136.262	80.001	19.997	103.250	20.316	3.289	0.404
105.499	136.530	80.002	19.995	103.249	20.316	3.278	0.449
105.999	136.775	80.006	19.996	103.250	20.316	3.296	0.502
106.499	136.976	80.006	19.995	103.249	20.316	3.294	0.480
106.999	137.228	80.007	19.997	103.248	20.313	3.497	0.450
107.499	137.470	80.005	19.995	103.248	20.318	3.166	0.474
107.999	137.679	80.003	19.994	103.247	20.316	3.252	0.472
108.499	137.931	80.003	19.999	103.244	20.314	3.441	0.456
108.999	138.180	80.009	19.988	103.242	20.315	3.340	0.481
109.499	138.370	79.999	19.998	103.245	20.316	3.252	0.470
109.999	138.591	80.003	19.993	103.244	20.318	3.170	0.425
110.499	138.836	80.004	19.993	103.245	20.318	3.154	0.438
111.000	139.068	80.006	19.999	103.246	20.316	3.313	0.471
111.500	139.290	80.004	19.998	103.249	20.314	3.408	0.465
111.999	139.512	80.002	19.998	103.244	20.318	3.150	0.449
112.499	139.809	80.003	19.997	103.244	20.319	3.108	0.482
112.999	140.031	80.003	19.995	103.245	20.316	3.267	0.519
113.499	140.219	80.001	19.997	103.247	20.316	3.298	0.465
113.999	140.484	80.003	19.997	103.248	20.321	2.978	0.432
114.499	140.676	80.002	19.997	103.250	20.316	3.256	0.455
114.999	140.940	80.003	19.993	103.251	20.319	3.108	0.456
115.499	141.143	80.002	19.996	103.251	20.317	3.242	0.461
115.999	141.343	79.999	19.999	103.249	20.318	3.126	0.435
116.499	141.620	80.005	19.996	103.247	20.317	3.190	0.440
116.999	141.852	79.998	20.001	103.245	20.318	3.163	0.493
117.499	142.098	80.005	19.991	103.239	20.318	3.167	0.494
117.999	142.331	80.001	19.999	103.238	20.320	2.984	0.479
118.499	142.571	80.005	19.993	103.235	20.315	3.338	0.476
119.000	142.832	80.007	19.992	103.234	20.316	3.269	0.487
119.500	143.060	80.001	19.995	103.236	20.317	3.227	0.495
119.999	143.263	80.004	19.991	103.241	20.317	3.212	0.460
120.499	143.511	80.003	19.998	103.238	20.317	3.198	0.441
120.999	143.751	80.004	19.991	103.238	20.316	3.287	0.469
121.499	144.050	80.002	19.994	103.239	20.318	3.167	0.513
121.999	144.302	80.009	19.992	103.236	20.317	3.231	0.545
122.499	144.494	80.001	19.993	103.238	20.312	3.525	0.498
122.999	144.753	80.003	19.995	103.239	20.317	3.211	0.448
123.499	144.967	80.001	19.998	103.240	20.316	3.315	0.462
123.999	145.202	80.002	19.998	103.239	20.316	3.274	0.461
124.499	145.439	80.004	20.001	103.239	20.315	3.353	0.461
124.999	145.715	80.002	19.996	103.234	20.317	3.249	0.492
125.499	145.953	80.002	19.990	103.236	20.316	3.278	0.513
125.999	146.199	80.011	19.992	103.237	20.314	3.412	0.499
126.499	146.424	80.003	19.995	103.242	20.314	3.412	0.478
126.999	146.647	80.003	19.995	103.244	20.312	3.532	0.460
127.500	146.877	80.002	19.999	103.246	20.313	3.470	0.451
128.000	147.178	80.008	19.995	103.242	20.315	3.362	0.492
128.500	147.379	80.008	19.994	103.241	20.313	3.485	0.517
129.000	147.646	80.009	19.998	103.237	20.314	3.432	0.485
129.500	147.882	80.003	19.995	103.235	20.313	3.479	0.485
130.000	148.087	80.007	20.002	103.236	20.314	3.440	0.472
130.500	148.388	80.008	19.995	103.236	20.316	3.274	0.474
131.000	148.598	80.004	19.993	103.240	20.308	3.813	0.508
131.500	148.851	80.004	19.995	103.245	20.311	3.605	0.487
132.000	149.095	80.002	19.996	103.247	20.313	3.481	0.481
132.500	149.334	80.004	19.997	103.247	20.313	3.463	0.490
133.000	149.605	80.003	19.990	103.249	20.312	3.543	0.496
133.500	149.814	80.000	20.000	103.250	20.311	3.649	0.495
134.000	150.111	80.007	19.995	103.248	20.311	3.647	0.493
134.500	150.311	80.002	20.000	103.245	20.311	3.590	0.502
135.000	150.551	80.007	19.990	103.242	20.312	3.541	0.469
135.500	150.786	80.000	20.000	103.245	20.312	3.576	0.457
136.000	151.040	80.004	19.996	103.242	20.314	3.402	0.481
136.500	151.286	80.004	19.997	103.242	20.311	3.640	0.495
137.000	151.544	80.011	19.991	103.244	20.311	3.609	0.502
137.500	151.746	80.002	19.994	103.247	20.311	3.627	0.482
138.000	151.975	80.004	19.994	103.242	20.309	3.736	0.446
138.500	152.259	80.007	19.991	103.242	20.308	3.831	0.472
139.000	152.499	80.002	19.996	103.244	20.308	3.837	0.518
139.500	152.721	80.001	19.998	103.243	20.311	3.647	0.493
140.000	152.962	80.001	19.997	103.236	20.310	3.684	0.463
140.500	153.186	80.007	19.994	103.235	20.311	3.622	0.464
141.000	153.471	80.005	19.993	103.231	20.309	3.740	0.487
141.500	153.720	80.010	19.992	103.227	20.309	3.746	0.521
142.000	153.931	80.005	19.996	103.229	20.309	3.755	0.497
142.500	154.168	80.004	19.993	103.235	20.311	3.603	0.454
143.000	154.458	80.005	19.994	103.240	20.308	3.826	0.488
143.500	154.704	80.004	19.991	103.241	20.306	3.921	0.532
144.000	154.919	80.005	19.992	103.238	20.308	3.787	0.498
144.500	155.161	80.011	19.993	103.234	20.310	3.674	0.459
145.000	155.384	80.004	19.995	103.231	20.308	3.802	0.461
145.500	155.617	80.001	19.996	103.232	20.308	3.846	0.461
146.000	155.876	80.004	19.994	103.235	20.306	3.952	0.474
146.500	156.147	80.004	19.996	103.240	20.308	3.788	0.511
147.000	156.390	80.005	19.995	103.240	20.304	4.089	0.522
147.500	156.615	80.005	19.995	103.242	20.302	4.241	0.491
148.000	156.859	80.001	19.999	103.234	20.306	3.981	0.469
148.500	157.065	80.005	19.995	103.228	20.305	4.041	0.460
149.000	157.336	80.006	19.995	103.224	20.309	3.773	0.464
149.500	157.599	80.006	19.993	103.222	20.306	3.974	0.505
150.000	157.860	80.007	19.994	103.221	20.307	3.901	0.529
150.500	158.115	80.004	19.997	103.227	20.301	4.279	0.520
151.000	158.396	80.003	19.993	103.232	20.304	4.089	0.526
151.500	158.590	80.006	19.991	103.234	20.305	4.052	0.506
152.000	158.836	80.003	19.995	103.233	20.304	4.071	0.457
152.500	159.096	80.005	19.996	103.231	20.304	4.076	0.473
153.000	159.325	80.007	19.996	103.226	20.308	3.833	0.498
153.500	159.560	80.004	19.996	103.221	20.303	4.137	0.476
154.000	159.833	80.005	19.996	103.218	20.302	4.232	0.485
154.500	160.051	80.008	19.996	103.217	20.304	4.082	0.499
155.000	160.313	80.004	19.994	103.217	20.303	4.142	0.486
155.500	160.554	80.004	19.995	103.221	20.300	4.389	0.492
156.000	160.819	80.002	20.000	103.225	20.302	4.244	0.505
156.500	161.067	80.003	19.997	103.224	20.302	4.202	0.510
157.000	161.313	80.004	19.994	103.224	20.300	4.346	0.504
157.500	161.528	80.005	19.995	103.224	20.301	4.290	0.477
158.000	161.772	80.004	19.995	103.219	20.302	4.208	0.460
158.500	162.012	80.005	19.994	103.215	20.301	4.283	0.472
159.000	162.287	80.006	19.996	103.218	20.302	4.230	0.500
159.500	162.518	80.001	19.997	103.218	20.302	4.243	0.511
160.000	162.784	80.005	19.996	103.217	20.304	4.105	0.501
160.500	163.014	80.005	19.996	103.217	20.302	4.252	0.496
161.000	163.239	80.004	19.995	103.217	20.300	4.343	0.475
161.500	163.485	79.999	19.999	103.216	20.301	4.257	0.463
162.000	163.759	80.005	19.993	103.215	20.300	4.337	0.496
162.500	164.044	80.003	19.993	103.216	20.303	4.146	0.540
163.000	164.272	80.002	19.994	103.219	20.302	4.212	0.536
163.500	164.492	80.004	19.995	103.223	20.302	4.241	0.480
164.000	164.754	80.004	19.994	103.223	20.302	4.230	0.465
164.500	165.033	80.004	19.996	103.224	20.302	4.223	0.511
165.000	165.288	80.003	19.996	103.223	20.305	4.044	0.537
165.500	165.500	80.002	19.998	103.220	20.302	4.221	0.501
166.000	165.744	80.004	19.994	103.215	20.304	4.122	0.462
166.500	165.986	80.003	19.995	103.214	20.301	4.283	0.471
167.000	166.245	80.003	19.996	103.214	20.303	4.133	0.493
167.500	166.501	80.001	19.996	103.214	20.300	4.385	0.508
168.000	166.740	80.004	19.995	103.213	20.305	4.054	0.505
168.500	166.983	80.003	19.997	103.215	20.302	4.204	0.489
169.000	167.276	80.002	19.995	103.216	20.299	4.449	0.509
169.500	167.487	80.001	19.996	103.217	20.301	4.312	0.520
170.000	167.747	80.005	19.990	103.217	20.304	4.107	0.488
170.500	167.997	79.998	19.997	103.219	20.301	4.259	0.491
171.000	168.233	80.002	19.996	103.217	20.301	4.268	0.498
171.500	168.457	80.002	19.995	103.217	20.302	4.209	0.473
172.000	168.784	80.002	19.996	103.216	20.299	4.394	0.505
172.500	168.949	80.003	19.995	103.217	20.302	4.220	0.521
