Sample ID:	C:\MCC\MCC Cal\Test\Shield_MCC_30K_min_220207_R3.txt
Sample Weight (mg):	4.84
Heating Rate (C/s):	0.5
Combustor Temp (C):	900
N2 Flow Rate (cc/min):	80
O2 Flow Rate (cc/min):	20
Calibration File:	C:\MCC\MCC Cal\Coeff1 JN10440_30_210304.txt.txt
T Correction Coefficients:	0	1.024463	0
Time Shift (s):	14
*
Time (s)	Temperature (C)	N2 flow rate (cc/min)	O2 flow rate (cc/min)	Flow Rate (cc/min)	Oxygen (%)	HRR (W/g)	Heating rate (C/s)
0.000	112.269	80.005	19.995	103.687	20.084	-0.093	-0.029
0.500	112.287	80.005	19.994	103.687	20.084	-0.073	-0.012
1.000	112.318	80.003	19.996	103.686	20.083	-0.061	0.028
1.500	112.304	80.006	19.995	103.685	20.083	-0.042	0.033
2.000	112.318	80.004	19.995	103.682	20.079	0.235	0.008
2.500	112.310	80.006	19.994	103.687	20.082	0.057	0.003
3.000	112.290	80.006	19.995	103.689	20.082	0.048	-0.011
3.500	112.269	80.007	19.995	103.693	20.083	-0.061	-0.034
4.000	112.260	80.006	19.993	103.693	20.083	-0.029	-0.035
4.500	112.287	80.006	19.995	103.696	20.085	-0.200	-0.006
5.000	112.285	80.007	19.995	103.698	20.084	-0.114	0.021
5.500	112.300	80.004	19.995	103.698	20.082	0.035	0.019
6.000	112.275	80.005	19.995	103.697	20.080	0.171	0.002
6.500	112.280	80.005	19.993	103.695	20.083	-0.033	-0.015
7.000	112.293	80.007	19.994	103.695	20.081	0.088	-0.001
7.500	112.281	80.005	19.994	103.695	20.083	-0.057	0.010
8.000	112.311	80.006	19.994	103.697	20.080	0.160	0.009
8.500	112.282	80.007	19.993	103.701	20.081	0.095	0.009
9.000	112.293	80.006	19.994	103.706	20.081	0.068	-0.009
9.500	112.292	80.007	19.995	103.709	20.081	0.097	-0.004
10.000	112.288	80.007	19.993	103.711	20.079	0.248	0.003
10.500	112.281	80.007	19.994	103.712	20.078	0.270	-0.007
11.000	112.283	80.006	19.992	103.712	20.077	0.367	-0.007
11.500	112.274	80.005	19.994	103.713	20.078	0.274	-0.006
12.000	112.278	80.007	19.994	103.720	20.077	0.338	-0.006
12.500	112.295	80.005	19.993	103.728	20.073	0.621	0.008
13.000	112.311	80.007	19.993	103.735	20.075	0.527	0.027
13.500	112.294	80.005	19.994	103.743	20.073	0.641	0.016
14.000	112.292	80.005	19.994	103.752	20.071	0.740	-0.010
14.500	112.298	80.006	19.994	103.761	20.067	1.007	-0.008
15.000	112.271	80.005	19.993	103.772	20.070	0.808	-0.009
15.500	112.300	80.006	19.993	103.786	20.066	1.120	-0.009
16.000	112.303	80.005	19.993	103.799	20.069	0.917	0.017
16.500	112.312	80.007	19.994	103.813	20.063	1.310	0.022
17.000	112.329	80.004	19.993	103.822	20.064	1.257	0.019
17.500	112.314	80.005	19.993	103.826	20.063	1.292	0.014
18.000	112.393	80.006	19.993	103.829	20.061	1.422	0.033
18.500	112.407	80.006	19.994	103.838	20.056	1.742	0.078
19.000	112.411	80.005	19.993	103.846	20.057	1.679	0.056
19.500	112.451	80.006	19.993	103.854	20.058	1.617	0.031
20.000	112.438	80.006	19.993	103.863	20.056	1.760	0.036
20.500	112.465	80.002	19.994	103.878	20.057	1.723	0.020
21.000	112.517	80.004	19.994	103.887	20.050	2.148	0.046
21.500	112.549	80.005	19.993	103.892	20.051	2.080	0.082
22.000	112.590	80.004	19.992	103.892	20.050	2.190	0.079
22.500	112.617	80.005	19.993	103.896	20.051	2.116	0.071
23.000	112.664	80.004	19.994	103.896	20.047	2.365	0.071
23.500	112.694	80.005	19.993	103.897	20.047	2.387	0.075
24.000	112.748	80.004	19.993	103.900	20.046	2.475	0.080
24.500	112.754	80.005	19.993	103.908	20.044	2.554	0.072
25.000	112.836	80.006	19.995	103.911	20.045	2.493	0.074
25.500	112.888	80.006	19.994	103.911	20.045	2.541	0.111
26.000	112.932	80.004	19.994	103.911	20.049	2.212	0.115
26.500	113.037	80.005	19.994	103.911	20.046	2.473	0.123
27.000	113.038	80.005	19.993	103.914	20.046	2.466	0.128
27.500	113.132	80.005	19.994	103.917	20.045	2.495	0.100
28.000	113.218	80.005	19.994	103.922	20.043	2.618	0.137
28.500	113.277	80.004	19.993	103.930	20.042	2.681	0.162
29.000	113.366	80.006	19.993	103.938	20.042	2.729	0.147
29.500	113.437	80.005	19.993	103.940	20.043	2.637	0.155
30.000	113.498	80.005	19.995	103.940	20.043	2.657	0.146
30.500	113.567	80.007	19.993	103.937	20.041	2.758	0.131
31.000	113.622	80.005	19.994	103.935	20.042	2.681	0.127
31.500	113.717	80.006	19.993	103.931	20.042	2.723	0.137
32.000	113.819	80.005	19.994	103.930	20.039	2.938	0.174
32.500	113.911	80.005	19.995	103.932	20.040	2.824	0.195
33.000	113.982	80.007	19.994	103.934	20.037	3.065	0.178
33.501	114.085	80.005	19.995	103.935	20.037	3.028	0.168
34.001	114.128	80.007	19.994	103.938	20.039	2.906	0.160
34.501	114.290	80.007	19.994	103.940	20.035	3.175	0.176
35.001	114.369	80.008	19.994	103.943	20.038	2.954	0.223
35.501	114.419	80.007	19.994	103.946	20.036	3.120	0.185
36.000	114.537	80.008	19.994	103.946	20.033	3.307	0.149
36.500	114.618	80.008	19.994	103.946	20.034	3.221	0.183
37.000	114.734	80.008	19.994	103.945	20.034	3.247	0.198
37.500	114.847	80.006	19.994	103.945	20.035	3.186	0.213
38.000	114.902	80.006	19.995	103.944	20.036	3.131	0.199
38.500	115.016	80.009	19.995	103.944	20.036	3.112	0.169
39.000	115.139	80.008	19.994	103.946	20.035	3.186	0.203
39.500	115.238	80.009	19.993	103.947	20.035	3.190	0.229
40.000	115.416	80.007	19.992	103.946	20.036	3.109	0.249
40.500	115.519	80.010	19.993	103.946	20.032	3.348	0.279
41.000	115.620	80.008	19.993	103.946	20.037	3.067	0.242
41.500	115.759	80.006	19.992	103.944	20.037	3.039	0.222
42.000	115.868	80.007	19.994	103.944	20.036	3.109	0.244
42.500	115.984	80.009	19.993	103.944	20.033	3.300	0.237
43.000	116.115	80.008	19.994	103.945	20.033	3.318	0.236
43.500	116.216	80.008	19.994	103.944	20.034	3.228	0.239
44.000	116.351	80.008	19.994	103.937	20.035	3.157	0.234
44.500	116.480	80.007	19.993	103.935	20.035	3.192	0.250
45.000	116.611	80.008	19.994	103.935	20.032	3.351	0.262
45.500	116.750	80.007	19.994	103.933	20.032	3.351	0.265
46.000	116.857	80.007	19.993	103.935	20.031	3.449	0.258
46.500	117.004	80.006	19.994	103.941	20.029	3.613	0.250
47.000	117.114	80.007	19.994	103.943	20.036	3.105	0.255
47.500	117.249	80.008	19.993	103.943	20.031	3.478	0.251
48.000	117.403	80.008	19.994	103.944	20.032	3.348	0.267
48.500	117.520	80.007	19.994	103.943	20.033	3.302	0.280
49.000	117.653	80.007	19.993	103.943	20.032	3.363	0.261
49.500	117.800	80.007	19.994	103.943	20.036	3.098	0.265
50.000	117.950	80.007	19.993	103.943	20.033	3.289	0.288
50.501	118.069	80.007	19.994	103.944	20.032	3.388	0.283
51.001	118.250	80.009	19.992	103.944	20.032	3.372	0.284
51.500	118.428	80.005	19.993	103.946	20.035	3.184	0.329
52.000	118.542	80.008	19.994	103.946	20.034	3.234	0.326
52.500	118.701	80.007	19.992	103.946	20.036	3.140	0.283
53.000	118.819	80.008	19.994	103.946	20.032	3.350	0.275
53.500	118.967	80.007	19.993	103.947	20.034	3.227	0.271
54.000	119.111	80.008	19.993	103.946	20.034	3.240	0.279
54.500	119.287	80.007	19.994	103.946	20.032	3.374	0.306
55.000	119.443	80.007	19.994	103.946	20.033	3.300	0.326
55.500	119.599	80.006	19.993	103.946	20.038	2.970	0.322
56.000	119.764	80.008	19.994	103.946	20.032	3.385	0.317
56.500	119.932	80.007	19.994	103.946	20.032	3.396	0.327
57.000	120.091	80.006	19.993	103.947	20.033	3.297	0.330
57.500	120.232	80.008	19.994	103.950	20.031	3.466	0.313
58.000	120.373	80.007	19.994	103.951	20.032	3.400	0.291
58.500	120.547	80.007	19.994	103.951	20.029	3.569	0.299
59.000	120.718	80.008	19.993	103.953	20.034	3.214	0.330
59.500	120.872	80.008	19.995	103.953	20.034	3.262	0.335
60.000	121.038	80.008	19.994	103.950	20.033	3.291	0.322
60.500	121.210	80.008	19.994	103.950	20.032	3.387	0.329
61.000	121.393	80.007	19.994	103.951	20.033	3.282	0.347
61.500	121.558	80.008	19.994	103.952	20.030	3.503	0.352
62.001	121.731	80.009	19.993	103.951	20.031	3.446	0.343
62.501	121.919	80.008	19.994	103.951	20.028	3.637	0.350
63.000	122.086	80.008	19.994	103.950	20.031	3.453	0.358
63.500	122.271	80.008	19.994	103.949	20.031	3.475	0.353
64.000	122.468	80.009	19.993	103.948	20.027	3.719	0.367
64.500	122.615	80.010	19.993	103.952	20.027	3.745	0.363
65.000	122.829	80.008	19.993	103.952	20.029	3.609	0.352
65.500	122.995	80.008	19.994	103.953	20.029	3.576	0.371
66.001	123.200	80.007	19.993	103.956	20.030	3.505	0.376
66.501	123.348	80.008	19.994	103.956	20.029	3.589	0.362
67.000	123.516	80.008	19.994	103.954	20.031	3.419	0.334
67.500	123.726	80.008	19.994	103.958	20.033	3.298	0.347
68.000	123.913	80.009	19.994	103.964	20.033	3.331	0.387
68.500	124.077	80.008	19.994	103.964	20.030	3.527	0.374
69.000	124.299	80.008	19.994	103.965	20.035	3.185	0.368
69.500	124.511	80.008	19.994	103.966	20.033	3.321	0.410
70.000	124.649	80.008	19.994	103.968	20.031	3.472	0.392
70.500	124.838	80.007	19.994	103.964	20.034	3.259	0.339
71.000	125.044	80.007	19.994	103.966	20.034	3.275	0.361
71.500	125.237	80.006	19.994	103.968	20.033	3.316	0.397
72.000	125.393	80.006	19.993	103.969	20.030	3.524	0.374
72.500	125.631	80.005	19.994	103.966	20.032	3.369	0.372
73.000	125.829	80.007	19.994	103.965	20.031	3.463	0.415
73.500	126.053	80.006	19.994	103.963	20.031	3.476	0.429
74.000	126.239	80.006	19.994	103.963	20.028	3.641	0.415
74.500	126.403	80.006	19.994	103.959	20.032	3.391	0.380
75.000	126.628	80.006	19.994	103.962	20.032	3.358	0.370
75.500	126.800	80.005	19.993	103.961	20.032	3.395	0.393
76.000	126.979	80.006	19.994	103.965	20.031	3.474	0.374
76.500	127.178	80.005	19.994	103.966	20.029	3.602	0.365
77.000	127.432	80.005	19.995	103.973	20.030	3.518	0.416
77.501	127.614	80.006	19.993	103.976	20.028	3.623	0.444
78.001	127.819	80.004	19.994	103.983	20.030	3.525	0.411
78.501	128.033	80.005	19.994	103.985	20.028	3.628	0.403
79.001	128.236	80.005	19.993	103.983	20.031	3.424	0.418
79.500	128.443	80.004	19.995	103.983	20.032	3.351	0.414
80.000	128.665	80.003	19.992	103.981	20.032	3.369	0.419
80.500	128.871	80.006	19.996	103.981	20.030	3.544	0.428
81.000	129.099	80.005	19.995	103.980	20.029	3.557	0.431
81.500	129.324	80.005	19.995	103.983	20.030	3.507	0.444
82.000	129.531	80.005	19.994	103.984	20.030	3.547	0.443
82.500	129.773	80.005	19.995	103.984	20.030	3.496	0.440
83.000	129.959	80.006	19.994	103.983	20.030	3.503	0.438
83.500	130.168	80.004	19.995	103.983	20.032	3.408	0.412
84.000	130.376	80.004	19.995	103.983	20.027	3.718	0.406
84.500	130.615	80.006	19.995	103.982	20.028	3.674	0.432
85.000	130.824	80.005	19.995	103.984	20.029	3.610	0.447
85.500	131.017	80.006	19.995	103.983	20.030	3.535	0.425
86.000	131.250	80.004	19.994	103.982	20.030	3.547	0.414
86.501	131.444	80.004	19.994	103.977	20.032	3.364	0.426
87.001	131.670	80.004	19.995	103.973	20.029	3.610	0.423
87.500	131.889	80.003	19.994	103.972	20.029	3.551	0.432
88.000	132.135	80.005	19.995	103.974	20.029	3.597	0.455
88.501	132.290	80.005	19.994	103.975	20.031	3.439	0.433
89.001	132.555	80.005	19.995	103.980	20.029	3.595	0.410
89.500	132.752	80.005	19.995	103.984	20.031	3.456	0.441
90.001	132.959	80.005	19.994	103.984	20.029	3.582	0.433
90.501	133.236	80.004	19.994	103.983	20.030	3.531	0.444
91.000	133.442	80.005	19.993	103.984	20.030	3.518	0.484
91.500	133.615	80.006	19.994	103.983	20.030	3.500	0.431
92.000	133.879	80.005	19.995	103.984	20.030	3.483	0.407
92.500	134.104	80.006	19.994	103.984	20.030	3.485	0.463
93.000	134.325	80.004	19.994	103.983	20.028	3.647	0.468
93.500	134.579	80.006	19.995	103.983	20.027	3.691	0.461
94.001	134.774	80.005	19.995	103.983	20.029	3.582	0.462
94.501	135.037	80.006	19.996	103.982	20.028	3.624	0.454
95.000	135.254	80.006	19.994	103.981	20.029	3.586	0.469
95.500	135.485	80.006	19.995	103.982	20.030	3.503	0.464
96.000	135.704	80.005	19.995	103.981	20.030	3.540	0.449
96.500	135.896	80.006	19.995	103.982	20.029	3.584	0.431
97.000	136.141	80.004	19.995	103.981	20.029	3.579	0.424
97.500	136.401	80.007	19.995	103.980	20.031	3.444	0.470
98.000	136.588	80.004	19.995	103.980	20.033	3.301	0.476
98.500	136.841	80.006	19.995	103.980	20.031	3.481	0.444
99.000	137.090	80.004	19.995	103.980	20.028	3.642	0.471
99.500	137.344	80.006	19.995	103.981	20.029	3.591	0.503
100.000	137.579	80.003	19.995	103.982	20.027	3.736	0.496
100.500	137.824	80.005	19.996	103.982	20.030	3.540	0.484
101.000	138.069	80.005	19.994	103.982	20.030	3.531	0.485
101.500	138.311	80.004	19.994	103.982	20.028	3.645	0.489
102.000	138.529	80.005	19.995	103.982	20.029	3.553	0.474
102.500	138.736	80.005	19.995	103.983	20.028	3.647	0.442
103.000	139.058	80.006	19.995	103.983	20.031	3.463	0.477
103.500	139.274	80.004	19.995	103.983	20.026	3.766	0.534
104.000	139.490	80.003	19.993	103.984	20.026	3.803	0.485
104.500	139.756	80.005	19.994	103.982	20.025	3.825	0.457
105.000	139.949	80.006	19.995	103.979	20.028	3.632	0.471
105.501	140.214	80.006	19.994	103.978	20.027	3.694	0.458
106.001	140.463	80.006	19.993	103.977	20.027	3.701	0.486
106.501	140.726	80.005	19.994	103.977	20.027	3.727	0.513
107.001	140.917	80.004	19.995	103.978	20.027	3.744	0.483
107.500	141.216	80.006	19.995	103.980	20.029	3.587	0.472
108.000	141.414	80.006	19.993	103.980	20.026	3.773	0.494
108.500	141.675	80.005	19.994	103.981	20.026	3.777	0.478
109.000	141.945	80.007	19.993	103.975	20.027	3.698	0.495
109.500	142.198	80.005	19.993	103.969	20.026	3.801	0.527
110.000	142.399	80.006	19.994	103.967	20.030	3.523	0.488
110.500	142.638	80.007	19.994	103.965	20.031	3.427	0.447
111.000	142.900	80.006	19.995	103.963	20.028	3.635	0.470
111.500	143.187	80.005	19.995	103.968	20.025	3.839	0.525
112.000	143.439	80.009	19.994	103.975	20.026	3.795	0.544
112.500	143.671	80.005	19.994	103.977	20.028	3.681	0.511
113.000	143.895	80.005	19.994	103.978	20.029	3.554	0.470
113.500	144.183	80.007	19.994	103.981	20.029	3.598	0.484
114.000	144.419	80.006	19.993	103.982	20.026	3.756	0.518
114.501	144.654	80.007	19.994	103.982	20.027	3.749	0.498
115.001	144.937	80.006	19.994	103.978	20.029	3.556	0.494
115.500	145.219	80.008	19.993	103.975	20.029	3.583	0.542
116.000	145.393	80.006	19.995	103.972	20.027	3.707	0.511
116.500	145.675	80.007	19.994	103.969	20.030	3.495	0.456
117.000	145.951	80.008	19.994	103.968	20.030	3.548	0.507
117.500	146.155	80.006	19.994	103.968	20.030	3.482	0.519
118.001	146.403	80.007	19.994	103.967	20.030	3.526	0.466
118.501	146.645	80.007	19.993	103.968	20.031	3.425	0.471
119.000	146.901	80.008	19.993	103.971	20.033	3.320	0.494
119.500	147.181	80.007	19.993	103.970	20.034	3.261	0.517
120.000	147.416	80.007	19.993	103.972	20.034	3.261	0.525
120.500	147.669	80.006	19.993	103.972	20.031	3.423	0.501
121.000	147.916	80.007	19.994	103.968	20.032	3.390	0.494
121.500	148.149	80.009	19.994	103.961	20.032	3.394	0.490
122.000	148.405	80.009	19.993	103.959	20.035	3.197	0.485
122.500	148.693	80.008	19.993	103.958	20.038	2.978	0.517
123.000	148.956	80.007	19.993	103.961	20.035	3.153	0.548
123.500	149.204	80.007	19.993	103.963	20.039	2.881	0.531
124.000	149.514	80.008	19.994	103.963	20.038	3.010	0.535
124.500	149.747	80.007	19.994	103.960	20.036	3.140	0.550
125.000	149.987	80.007	19.994	103.959	20.032	3.370	0.508
125.500	150.227	80.008	19.994	103.957	20.035	3.181	0.477
126.000	150.456	80.008	19.994	103.960	20.035	3.162	0.475
126.500	150.748	80.007	19.993	103.961	20.039	2.933	0.495
127.000	150.959	80.006	19.993	103.963	20.039	2.890	0.512
127.500	151.268	80.007	19.994	103.961	20.038	2.980	0.511
128.000	151.508	80.006	19.994	103.956	20.035	3.194	0.534
128.500	151.763	80.007	19.993	103.950	20.036	3.096	0.522
129.000	152.043	80.006	19.993	103.948	20.035	3.168	0.515
129.500	152.296	80.005	19.994	103.946	20.037	3.061	0.534
130.000	152.564	80.006	19.994	103.948	20.037	3.041	0.527
130.500	152.790	80.007	19.992	103.948	20.038	2.945	0.508
131.000	153.036	80.008	19.994	103.948	20.039	2.925	0.483
131.500	153.331	80.007	19.993	103.947	20.036	3.081	0.507
132.000	153.603	80.007	19.993	103.947	20.041	2.800	0.554
132.500	153.851	80.006	19.993	103.946	20.035	3.184	0.543
133.000	154.130	80.007	19.994	103.946	20.038	2.997	0.524
133.500	154.374	80.007	19.993	103.947	20.036	3.100	0.525
134.000	154.610	80.007	19.992	103.948	20.037	3.072	0.501
134.500	154.883	80.007	19.994	103.948	20.038	2.995	0.494
135.000	155.122	80.005	19.994	103.949	20.038	2.945	0.511
135.500	155.362	80.008	19.994	103.949	20.037	3.013	0.496
136.000	155.644	80.007	19.994	103.949	20.039	2.922	0.500
136.500	155.923	80.006	19.993	103.948	20.039	2.925	0.541
137.000	156.164	80.009	19.992	103.948	20.041	2.762	0.541
137.500	156.413	80.006	19.993	103.948	20.039	2.940	0.505
138.000	156.693	80.008	19.993	103.949	20.040	2.824	0.509
138.500	156.928	80.007	19.993	103.949	20.039	2.923	0.522
139.000	157.177	80.008	19.992	103.951	20.037	3.056	0.500
139.500	157.434	80.007	19.992	103.952	20.036	3.087	0.495
140.000	157.737	80.007	19.993	103.951	20.038	2.951	0.533
140.500	157.951	80.007	19.993	103.950	20.037	3.045	0.539
141.000	158.241	80.007	19.994	103.950	20.037	3.050	0.510
141.500	158.480	80.009	19.994	103.947	20.039	2.942	0.516
142.000	158.749	80.008	19.993	103.946	20.038	2.978	0.518
142.500	159.033	80.009	19.993	103.946	20.037	3.030	0.530
143.000	159.256	80.008	19.993	103.947	20.040	2.864	0.530
143.500	159.489	80.008	19.992	103.947	20.038	2.993	0.481
144.000	159.747	80.010	19.994	103.948	20.037	3.074	0.473
144.500	160.030	80.007	19.994	103.949	20.035	3.166	0.516
145.000	160.276	80.009	19.993	103.949	20.034	3.243	0.535
145.501	160.509	80.009	19.993	103.949	20.036	3.085	0.504
146.000	160.802	80.008	19.992	103.948	20.038	2.993	0.502
146.500	161.008	80.008	19.993	103.948	20.039	2.918	0.512
147.000	161.305	80.007	19.993	103.948	20.038	2.949	0.501
147.500	161.561	80.008	19.992	103.947	20.039	2.886	0.529
148.000	161.792	80.008	19.992	103.947	20.042	2.723	0.520
148.500	162.069	80.008	19.994	103.947	20.042	2.710	0.497
149.000	162.273	80.006	19.994	103.947	20.040	2.813	0.495
149.500	162.587	80.009	19.993	103.947	20.036	3.131	0.500
150.000	162.820	80.008	19.994	103.948	20.043	2.670	0.532
150.500	163.096	80.008	19.993	103.948	20.038	3.011	0.528
151.000	163.355	80.008	19.993	103.948	20.034	3.263	0.523
151.500	163.621	80.008	19.992	103.948	20.037	3.046	0.530
152.000	163.862	80.008	19.995	103.948	20.034	3.272	0.515
152.500	164.121	80.006	19.994	103.943	20.032	3.355	0.503
153.000	164.351	80.008	19.994	103.941	20.035	3.156	0.494
153.500	164.620	80.008	19.994	103.941	20.037	3.013	0.494
154.000	164.849	80.006	19.994	103.940	20.039	2.927	0.499
154.500	165.136	80.006	19.993	103.940	20.034	3.213	0.507
155.000	165.376	80.006	19.994	103.945	20.039	2.892	0.521
155.500	165.646	80.004	19.994	103.947	20.033	3.287	0.518
156.000	165.918	80.005	19.994	103.946	20.037	3.064	0.526
156.500	166.168	80.007	19.994	103.946	20.036	3.101	0.532
157.000	166.386	80.006	19.994	103.945	20.036	3.120	0.495
157.500	166.650	80.005	19.995	103.941	20.037	3.042	0.475
158.000	166.903	80.006	19.995	103.940	20.034	3.224	0.499
158.500	167.109	80.005	19.994	103.940	20.040	2.858	0.489
159.000	167.410	80.005	19.995	103.940	20.038	2.976	0.483
159.500	167.668	80.006	19.994	103.941	20.035	3.184	0.532
160.000	167.921	80.005	19.995	103.942	20.037	3.031	0.535
160.500	168.185	80.006	19.996	103.942	20.035	3.151	0.514
161.000	168.398	80.005	19.995	103.943	20.041	2.802	0.497
161.500	168.655	80.006	19.995	103.941	20.036	3.081	0.474
162.000	168.908	80.006	19.996	103.940	20.035	3.165	0.490
162.500	169.169	80.005	19.996	103.941	20.038	2.945	0.512
163.000	169.405	80.007	19.996	103.941	20.039	2.939	0.505
163.500	169.690	80.005	19.995	103.941	20.038	2.954	0.509
164.000	170.016	80.006	19.995	103.939	20.037	3.076	0.566
164.500	170.173	80.005	19.994	103.936	20.040	2.864	0.547
165.000	170.429	80.007	19.995	103.931	20.039	2.901	0.448
165.500	170.650	80.006	19.995	103.930	20.043	2.643	0.445
166.000	170.909	80.006	19.996	103.929	20.038	2.978	0.479
166.500	171.180	80.006	19.995	103.932	20.038	2.994	0.505
167.000	171.415	80.007	19.994	103.934	20.038	2.970	0.518
167.500	171.683	80.006	19.994	103.938	20.039	2.906	0.504
168.000	171.929	80.006	19.995	103.936	20.039	2.917	0.509
168.500	172.161	80.006	19.993	103.931	20.040	2.825	0.496
169.000	172.380	80.008	19.995	103.929	20.042	2.691	0.464
169.500	172.674	80.007	19.994	103.926	20.041	2.788	0.482
170.000	172.962	80.008	19.994	103.922	20.040	2.842	0.548
170.500	173.164	80.007	19.994	103.925	20.039	2.912	0.536
171.000	173.438	80.007	19.994	103.927	20.041	2.761	0.483
171.500	173.704	80.007	19.995	103.926	20.043	2.642	0.507
172.000	173.883	80.007	19.994	103.928	20.036	3.123	0.492
172.500	174.208	80.005	19.994	103.927	20.041	2.805	0.474
